%OpenBCI Raw EEG Data
%Number of channels = 4
%Sample Rate = 200 Hz
%Board = OpenBCI_GUI$BoardGanglionBLE
Sample Index, EXG Channel 0, EXG Channel 1, EXG Channel 2, EXG Channel 3, Accel Channel 0, Accel Channel 1, Accel Channel 2, Other, Other, Other, Other, Other, Timestamp, Other, Timestamp (Formatted)
0.0, -1850.6502241236158, -1176.4771586111747, 138.05840686429292, 194.79081924213096, 0.0, 0.0, 0.0, 0.0, 0.0, 0.0, 0.0, 0.0, 1.6670485853868532E9, 0.0, 2022-10-29 15:03:05.386
1.0, -1824.308238785714, -936.0352505599149, -64.17294333968312, 146.55358961364254, 0.0, 0.01600000075995922, 0.0, 0.0, 0.0, 0.0, 0.0, 0.0, 1.6670485854005692E9, 0.0, 2022-10-29 15:03:05.400
1.0, -1768.8305628430098, -1106.135250294581, 130.64779510209337, 110.12322414526716, 0.0, 0.01600000075995922, 0.0, 0.0, 0.0, 0.0, 0.0, 0.0, 1.6670485854005692E9, 0.0, 2022-10-29 15:03:05.400
2.0, -1675.2545260516927, -1252.7037995080464, 115.6283568800427, 98.48278553318232, -0.01600000075995922, 0.01600000075995922, 0.0, 0.0, 0.0, 0.0, 0.0, 0.0, 1.667048585416953E9, 0.0, 2022-10-29 15:03:05.416
2.0, -1848.8644218947738, -1165.330386793241, 131.73236608924344, 201.1729585165158, -0.01600000075995922, 0.01600000075995922, 0.0, 0.0, 0.0, 0.0, 0.0, 0.0, 1.667048585416953E9, 0.0, 2022-10-29 15:03:05.416
3.0, -1824.8299548295327, -951.9466549213976, -66.13452086644247, 145.87105787172914, -0.01600000075995922, 0.01600000075995922, 0.0, 0.0, 0.0, 0.0, 0.0, 0.0, 1.667048585417695E9, 0.0, 2022-10-29 15:03:05.417
3.0, -1770.6949029709212, -1095.1642537745647, 136.12487858720124, 127.12293939385563, -0.01600000075995922, 0.01600000075995922, 0.0, 0.0, 0.0, 0.0, 0.0, 0.0, 1.667048585417695E9, 0.0, 2022-10-29 15:03:05.417
4.0, -1669.8335410659201, -1238.3257541283965, 125.82145420927554, 117.8535973536782, -0.01600000075995922, 0.01600000075995922, 0.0, 0.0, 0.0, 0.0, 0.0, 0.0, 1.6670485854299636E9, 0.0, 2022-10-29 15:03:05.429
4.0, -1827.335687799845, -1159.696227509994, 130.2120967572555, 209.43626746861264, -0.01600000075995922, 0.01600000075995922, 0.0, 0.0, 0.0, 0.0, 0.0, 0.0, 1.6670485854299636E9, 0.0, 2022-10-29 15:03:05.429
5.0, -1809.6478309594095, -945.5757353468798, -61.48395527154207, 152.30555574549362, -0.01600000075995922, 0.01600000075995922, 0.0, 0.0, 0.0, 0.0, 0.0, 0.0, 1.6670485854456449E9, 0.0, 2022-10-29 15:03:05.445
5.0, -1742.4380888557062, -1093.2251156475395, 132.99271237431094, 120.90909561747685, -0.01600000075995922, 0.01600000075995922, 0.0, 0.0, 0.0, 0.0, 0.0, 0.0, 1.6670485854456449E9, 0.0, 2022-10-29 15:03:05.445
6.0, -1670.0373656135052, -1248.668447455857, 121.56357810972258, 110.11761429533362, -0.01600000075995922, 0.01600000075995922, 0.0, 0.0, 0.0, 0.0, 0.0, 0.0, 1.6670485854463131E9, 0.0, 2022-10-29 15:03:05.446
6.0, -1852.5669228509068, -1175.798366769217, 138.40060771023855, 212.5048553822562, -0.01600000075995922, 0.01600000075995922, 0.0, 0.0, 0.0, 0.0, 0.0, 0.0, 1.6670485854463131E9, 0.0, 2022-10-29 15:03:05.446
7.0, -1821.9090929641388, -961.1243694126606, -61.83363591739908, 161.53749878611416, -0.01600000075995922, 0.01600000075995922, 0.0, 0.0, 0.0, 0.0, 0.0, 0.0, 1.66704858546003E9, 0.0, 2022-10-29 15:03:05.460
7.0, -1771.8991507566534, -1105.5761352512054, 141.23732182662934, 132.654251428321, -0.01600000075995922, 0.01600000075995922, 0.0, 0.0, 0.0, 0.0, 0.0, 0.0, 1.66704858546003E9, 0.0, 2022-10-29 15:03:05.460
8.0, -1698.6083313249983, -1246.231902634725, 130.23453615698963, 117.91343575296924, -0.01600000075995922, 0.01600000075995922, 0.0, 0.0, 0.0, 0.0, 0.0, 0.0, 1.667048585475664E9, 0.0, 2022-10-29 15:03:05.475
8.0, -1857.8981502377428, -1190.5915410439484, 135.6237319931388, 213.56885691965, -0.01600000075995922, 0.01600000075995922, 0.0, 0.0, 0.0, 0.0, 0.0, 0.0, 1.667048585475664E9, 0.0, 2022-10-29 15:03:05.475
9.0, -1830.325737814419, -1432.5163194276392, -63.380084549076855, 150.28974966937676, -0.01600000075995922, 0.01600000075995922, 0.0, 0.0, 0.0, 0.0, 0.0, 0.0, 1.6670485854763842E9, 0.0, 2022-10-29 15:03:05.476
9.0, -1776.8414285480976, -1583.9317789836787, 132.59254307905212, 122.18066160241142, -0.01600000075995922, 0.01600000075995922, 0.0, 0.0, 0.0, 0.0, 0.0, 0.0, 1.6670485854763842E9, 0.0, 2022-10-29 15:03:05.476
10.0, -1693.9989046296105, -1732.8078464698046, 127.26692554214969, 108.5356366140768, -0.01600000075995922, 0.01600000075995922, 0.49600002355873585, 0.0, 0.0, 0.0, 0.0, 0.0, 1.6670485854899683E9, 0.0, 2022-10-29 15:03:05.489
10.0, -1853.060589645058, -1663.8347415369935, 134.3016773588024, 203.05038829427212, -0.01600000075995922, 0.01600000075995922, 0.49600002355873585, 0.0, 0.0, 0.0, 0.0, 0.0, 1.6670485854899683E9, 0.0, 2022-10-29 15:03:05.489
11.0, -1840.1224057483487, -1447.7807210967876, -55.31873019458726, 162.2293802779168, -0.01600000075995922, 0.0, 0.49600002355873585, 0.0, 0.0, 0.0, 0.0, 0.0, 1.6670485855057373E9, 0.0, 2022-10-29 15:03:05.505
11.0, -1775.4520557145588, -1588.1784353833646, 142.2171756150201, 132.12692553456873, -0.01600000075995922, 0.0, 0.49600002355873585, 0.0, 0.0, 0.0, 0.0, 0.0, 1.6670485855057373E9, 0.0, 2022-10-29 15:03:05.505
12.0, -1688.91451063985, -1734.2233986030333, 129.98022296000272, 118.19392824964598, -0.01600000075995922, 0.0, 0.49600002355873585, 0.0, 0.0, 0.0, 0.0, 0.0, 1.6670485855064216E9, 0.0, 2022-10-29 15:03:05.506
12.0, -1866.312925138045, -1659.8049993347377, 135.81446689087898, 216.93102697981521, -0.01600000075995922, 0.0, 0.49600002355873585, 0.0, 0.0, 0.0, 0.0, 0.0, 1.6670485855064216E9, 0.0, 2022-10-29 15:03:05.506
13.0, -1839.5707705048844, -1456.182406347245, -58.88472480233759, 169.8045476381667, -0.01600000075995922, 0.0, 0.49600002355873585, 0.0, 0.0, 0.0, 0.0, 0.0, 1.6670485855199504E9, 0.0, 2022-10-29 15:03:05.519
13.0, -1782.7168113784865, -1581.0595358177088, 143.3858943511732, 128.12336263200268, -0.01600000075995922, 0.0, 0.49600002355873585, 0.0, 0.0, 0.0, 0.0, 0.0, 1.6670485855199504E9, 0.0, 2022-10-29 15:03:05.519
14.0, -1679.4319943021983, -1711.4230985231698, 120.97641381667927, 110.75339728780091, -0.01600000075995922, 0.0, 0.49600002355873585, 0.0, 0.0, 0.0, 0.0, 0.0, 1.667048585535648E9, 0.0, 2022-10-29 15:03:05.535
14.0, -1831.122336504981, -1648.4450532193296, 134.17078086035326, 211.83541329018772, -0.01600000075995922, 0.0, 0.49600002355873585, 0.0, 0.0, 0.0, 0.0, 0.0, 1.667048585535648E9, 0.0, 2022-10-29 15:03:05.535
15.0, -1847.211386114359, -1451.8123332490213, -56.51549818040803, 166.45546722784638, -0.01600000075995922, 0.0, 0.49600002355873585, 0.0, 0.0, 0.0, 0.0, 0.0, 1.6670485855363488E9, 0.0, 2022-10-29 15:03:05.536
15.0, -1779.9380657114089, -1597.483306473121, 140.2499882383272, 130.66462465189397, -0.01600000075995922, 0.0, 0.49600002355873585, 0.0, 0.0, 0.0, 0.0, 0.0, 1.6670485855363488E9, 0.0, 2022-10-29 15:03:05.536
16.0, -1687.5849762056023, -1728.8416825667955, 125.65689861122519, 105.9569755946286, -0.01600000075995922, 0.0, 0.49600002355873585, 0.0, 0.0, 0.0, 0.0, 0.0, 1.6670485855499876E9, 0.0, 2022-10-29 15:03:05.549
16.0, -1834.3835292663425, -1654.071732702665, 128.81711407378316, 217.0469638784416, -0.01600000075995922, 0.0, 0.49600002355873585, 0.0, 0.0, 0.0, 0.0, 0.0, 1.6670485855499876E9, 0.0, 2022-10-29 15:03:05.549
17.0, -1847.5217978106812, -1451.7955036992207, -60.05531348846853, 152.18587894691154, -0.01600000075995922, 0.0, 0.49600002355873585, 0.0, 0.0, 0.0, 0.0, 0.0, 1.66704858556575E9, 0.0, 2022-10-29 15:03:05.565
17.0, -1793.4391045514494, -1595.6713249445893, 147.68677930021659, 139.69087319495156, -0.01600000075995922, 0.0, 0.49600002355873585, 0.0, 0.0, 0.0, 0.0, 0.0, 1.66704858556575E9, 0.0, 2022-10-29 15:03:05.565
18.0, -1700.7082851501182, -1725.1410515606403, 129.29395131813362, 111.2732433816418, -0.01600000075995922, 0.0, 0.49600002355873585, 0.0, 0.0, 0.0, 0.0, 0.0, 1.6670485855663536E9, 0.0, 2022-10-29 15:03:05.566
18.0, -1819.3042526450008, -1638.706353734713, 134.8963214517571, 213.48096927069128, -0.01600000075995922, 0.0, 0.49600002355873585, 0.0, 0.0, 0.0, 0.0, 0.0, 1.6670485855663536E9, 0.0, 2022-10-29 15:03:05.566
19.0, -1844.918827441521, -1444.3325333376415, -51.055244245100766, 171.90450146328658, -0.01600000075995922, 0.0, 0.49600002355873585, 0.0, 0.0, 0.0, 0.0, 0.0, 1.6670485855799975E9, 0.0, 2022-10-29 15:03:05.579
19.0, -1783.4049529703334, -1586.47304100357, 140.71747573278844, 129.2472025686875, -0.01600000075995922, 0.0, 0.49600002355873585, 0.0, 0.0, 0.0, 0.0, 0.0, 1.6670485855799975E9, 0.0, 2022-10-29 15:03:05.579
20.0, -1690.505838070996, -1725.6328484048136, 122.85571354441345, 100.8071333556436, -0.01600000075995922, 0.0, 0.7520000357180834, 0.0, 0.0, 0.0, 0.0, 0.0, 1.6670485855956697E9, 0.0, 2022-10-29 15:03:05.595
20.0, -1822.0904781119898, -1649.090185961686, 139.15045765135437, 212.7909577288665, -0.01600000075995922, 0.0, 0.7520000357180834, 0.0, 0.0, 0.0, 0.0, 0.0, 1.6670485855956697E9, 0.0, 2022-10-29 15:03:05.595
21.0, -1830.9241218073294, -1451.8665617983788, -49.90148510877043, 164.86039989674464, -0.01600000075995922, 0.01600000075995922, 0.7520000357180834, 0.0, 0.0, 0.0, 0.0, 0.0, 1.6670485855964348E9, 0.0, 2022-10-29 15:03:05.596
21.0, -1775.3940872652456, -1585.0649686702527, 142.46961886202917, 128.76288552442566, -0.01600000075995922, 0.01600000075995922, 0.7520000357180834, 0.0, 0.0, 0.0, 0.0, 0.0, 1.6670485855964348E9, 0.0, 2022-10-29 15:03:05.596
22.0, -1685.6925868280232, -1727.7215825300664, 123.19791439035907, 106.6806462360546, -0.01600000075995922, 0.01600000075995922, 0.7520000357180834, 0.0, 0.0, 0.0, 0.0, 0.0, 1.6670485856099808E9, 0.0, 2022-10-29 15:03:05.609
22.0, -1817.2697470691055, -1659.5151570881717, 125.5951902619563, 224.2593609429896, -0.01600000075995922, 0.01600000075995922, 0.7520000357180834, 0.0, 0.0, 0.0, 0.0, 0.0, 1.6670485856099808E9, 0.0, 2022-10-29 15:03:05.609
23.0, -1862.6908320309594, -1467.6956883608364, -48.411134976428, 163.9272948578, -0.01600000075995922, 0.01600000075995922, 0.7520000357180834, 0.0, 0.0, 0.0, 0.0, 0.0, 1.6670485856256514E9, 0.0, 2022-10-29 15:03:05.625
23.0, -1772.8172961957753, -1581.106284567155, 143.72435529716313, 126.0982068059966, -0.01600000075995922, 0.01600000075995922, 0.7520000357180834, 0.0, 0.0, 0.0, 0.0, 0.0, 1.6670485856256514E9, 0.0, 2022-10-29 15:03:05.625
24.0, -1665.7177811646834, -1717.0609977063723, 123.89540573209524, 111.25267393188551, -0.01600000075995922, 0.01600000075995922, 0.7520000357180834, 0.0, 0.0, 0.0, 0.0, 0.0, 1.6670485856264367E9, 0.0, 2022-10-29 15:03:05.626
24.0, -1819.5136870425195, -1631.905345665291, 135.97902248892933, 212.3758288337849, -0.01600000075995922, 0.01600000075995922, 0.7520000357180834, 0.0, 0.0, 0.0, 0.0, 0.0, 1.6670485856264367E9, 0.0, 2022-10-29 15:03:05.626
25.0, -1832.6145565873012, -1450.1910866182297, -47.46307033766061, 170.50016902992502, -0.01600000075995922, 0.01600000075995922, 0.7520000357180834, 0.0, 0.0, 0.0, 0.0, 0.0, 1.6670485856400096E9, 0.0, 2022-10-29 15:03:05.640
25.0, -1782.1221672855318, -1589.1115404223092, 147.95231219707057, 127.74937263643369, -0.01600000075995922, 0.01600000075995922, 0.7520000357180834, 0.0, 0.0, 0.0, 0.0, 0.0, 1.6670485856400096E9, 0.0, 2022-10-29 15:03:05.640
26.0, -1680.871855785139, -1726.760428241454, 122.704247596208, 105.74941114708781, -0.01600000075995922, 0.01600000075995922, 0.7520000357180834, 0.0, 0.0, 0.0, 0.0, 0.0, 1.6670485856556017E9, 0.0, 2022-10-29 15:03:05.655
26.0, -1817.251047569327, -1641.9675464960746, 133.34800287010148, 220.9532893821597, -0.01600000075995922, 0.01600000075995922, 0.7520000357180834, 0.0, 0.0, 0.0, 0.0, 0.0, 1.6670485856556017E9, 0.0, 2022-10-29 15:03:05.655
27.0, -1842.386915171519, -1459.2622139607556, -51.481592840049416, 173.9390070391819, -0.01600000075995922, 0.01600000075995922, 0.7520000357180834, 0.0, 0.0, 0.0, 0.0, 0.0, 1.6670485856563437E9, 0.0, 2022-10-29 15:03:05.656
27.0, -1770.6593739213422, -1593.7434065174311, 152.64027679152787, 138.60069235786796, -0.01600000075995922, 0.01600000075995922, 0.7520000357180834, 0.0, 0.0, 0.0, 0.0, 0.0, 1.6670485856563437E9, 0.0, 2022-10-29 15:03:05.656
28.0, -1660.2163883298635, -1704.2705398579128, 128.6936973752454, 110.89364353613928, -0.01600000075995922, 0.01600000075995922, 0.7520000357180834, 0.0, 0.0, 0.0, 0.0, 0.0, 1.6670485856699312E9, 0.0, 2022-10-29 15:03:05.669
28.0, -1813.9786351080984, -1652.2055226247758, 136.04260078817606, 226.00402427231893, -0.01600000075995922, 0.01600000075995922, 0.7520000357180834, 0.0, 0.0, 0.0, 0.0, 0.0, 1.6670485856699312E9, 0.0, 2022-10-29 15:03:05.669
29.0, -1841.758611978963, -1457.846661827527, -48.442924126051366, 176.01652146456763, -0.01600000075995922, 0.01600000075995922, 0.7520000357180834, 0.0, 0.0, 0.0, 0.0, 0.0, 1.6670485856857576E9, 0.0, 2022-10-29 15:03:05.685
29.0, -1787.6048606205732, -1592.1445992863737, 149.73624447593465, 132.43920718086883, -0.01600000075995922, 0.01600000075995922, 0.7520000357180834, 0.0, 0.0, 0.0, 0.0, 0.0, 1.6670485856857576E9, 0.0, 2022-10-29 15:03:05.685
30.0, -1661.2448608176783, -1707.6719788676128, 118.82971124211326, 103.3820544751361, -0.01600000075995922, 0.01600000075995922, 0.8800000417977571, 0.0, 0.0, 0.0, 0.0, 0.0, 1.6670485856863835E9, 0.0, 2022-10-29 15:03:05.686
30.0, -1809.7562880581245, -1637.8349570450373, 134.2642783592455, 225.22799503151327, -0.01600000075995922, 0.01600000075995922, 0.8800000417977571, 0.0, 0.0, 0.0, 0.0, 0.0, 1.6670485856863835E9, 0.0, 2022-10-29 15:03:05.686
31.0, -1842.4542333707213, -1467.2319407663308, -48.14934197952971, 173.1237088488415, -0.01600000075995922, 0.01600000075995922, 0.8800000417977571, 0.0, 0.0, 0.0, 0.0, 0.0, 1.6670485856999276E9, 0.0, 2022-10-29 15:03:05.699
31.0, -1781.131093797274, -1585.1790356189013, 151.50334720499814, 137.85271236672997, -0.01600000075995922, 0.01600000075995922, 0.8800000417977571, 0.0, 0.0, 0.0, 0.0, 0.0, 1.6670485856999276E9, 0.0, 2022-10-29 15:03:05.699
32.0, -1670.209401011467, -1711.5633447715081, 118.48003059625626, 103.83645231975242, -0.01600000075995922, 0.01600000075995922, 0.8800000417977571, 0.0, 0.0, 0.0, 0.0, 0.0, 1.6670485857157328E9, 0.0, 2022-10-29 15:03:05.715
32.0, -1809.1766035649925, -1650.4926484450698, 129.97274316009134, 225.8656479739584, -0.01600000075995922, 0.01600000075995922, 0.8800000417977571, 0.0, 0.0, 0.0, 0.0, 0.0, 1.6670485857157328E9, 0.0, 2022-10-29 15:03:05.715
33.0, -1842.6674076681957, -1458.0336568253115, -52.74380907509476, 175.75846836762503, -0.01600000075995922, 0.01600000075995922, 0.8800000417977571, 0.0, 0.0, 0.0, 0.0, 0.0, 1.6670485857164133E9, 0.0, 2022-10-29 15:03:05.716
33.0, -1782.7542103780434, -1583.4530717893504, 148.52451689029112, 132.16993438405916, -0.01600000075995922, 0.01600000075995922, 0.8800000417977571, 0.0, 0.0, 0.0, 0.0, 0.0, 1.6670485857164133E9, 0.0, 2022-10-29 15:03:05.716
34.0, -1667.1165037481114, -1722.6914170896634, 118.62401674455032, 104.1225546663627, -0.01600000075995922, 0.01600000075995922, 0.8800000417977571, 0.0, 0.0, 0.0, 0.0, 0.0, 1.667048585729946E9, 0.0, 2022-10-29 15:03:05.729
34.0, -1793.1399125549942, -1628.1448762598448, 133.25824527116492, 229.1810692846775, -0.01600000075995922, 0.01600000075995922, 0.8800000417977571, 0.0, 0.0, 0.0, 0.0, 0.0, 1.667048585729946E9, 0.0, 2022-10-29 15:03:05.729
35.0, -1830.7072076098993, -1464.1801824024878, -54.776444701012224, 172.03539796173573, -0.01600000075995922, 0.01600000075995922, 0.8800000417977571, 0.0, 0.0, 0.0, 0.0, 0.0, 1.667048585745665E9, 0.0, 2022-10-29 15:03:05.745
35.0, -1792.635026060976, -1607.9662460489199, 147.72230834979564, 129.48655616585165, -0.01600000075995922, 0.01600000075995922, 0.8800000417977571, 0.0, 0.0, 0.0, 0.0, 0.0, 1.667048585745665E9, 0.0, 2022-10-29 15:03:05.745
36.0, -1664.3938565803692, -1699.1393971187063, 120.04704867769033, 114.58118489244953, -0.01600000075995922, 0.01600000075995922, 0.8800000417977571, 0.0, 0.0, 0.0, 0.0, 0.0, 1.6670485857463655E9, 0.0, 2022-10-29 15:03:05.746
36.0, -1809.0195277668536, -1639.8563729710877, 128.88443227298558, 222.43241981463507, -0.01600000075995922, 0.01600000075995922, 0.8800000417977571, 0.0, 0.0, 0.0, 0.0, 0.0, 1.6670485857463655E9, 0.0, 2022-10-29 15:03:05.746
37.0, -1844.1745873503387, -1457.5138107314706, -58.02080791257322, 167.72142336284742, -0.01600000075995922, 0.01600000075995922, 0.8800000417977571, 0.0, 0.0, 0.0, 0.0, 0.0, 1.6670485857599916E9, 0.0, 2022-10-29 15:03:05.759
37.0, -1785.7461303425953, -1591.0226292996667, 147.88499399786815, 134.3016773588024, -0.01600000075995922, 0.01600000075995922, 0.8800000417977571, 0.0, 0.0, 0.0, 0.0, 0.0, 1.6670485857599916E9, 0.0, 2022-10-29 15:03:05.759
38.0, -1663.5411593904719, -1706.3929330827668, 128.88256232300773, 107.85123492218554, -0.01600000075995922, 0.01600000075995922, 0.8800000417977571, 0.0, 0.0, 0.0, 0.0, 0.0, 1.6670485857756245E9, 0.0, 2022-10-29 15:03:05.775
38.0, -1781.3255685949698, -1639.4393741260283, 136.2277258359827, 232.3749438468367, -0.01600000075995922, 0.01600000075995922, 0.8800000417977571, 0.0, 0.0, 0.0, 0.0, 0.0, 1.6670485857756245E9, 0.0, 2022-10-29 15:03:05.775
39.0, -1844.024991352111, -1469.8162116357125, -49.76871866034344, 176.03709091432393, -0.01600000075995922, 0.01600000075995922, 0.8800000417977571, 0.0, 0.0, 0.0, 0.0, 0.0, 1.6670485857763782E9, 0.0, 2022-10-29 15:03:05.776
39.0, -1776.1570268562064, -1585.4183892160654, 145.35869157779962, 125.95235070772469, -0.01600000075995922, 0.01600000075995922, 0.8800000417977571, 0.0, 0.0, 0.0, 0.0, 0.0, 1.6670485857763782E9, 0.0, 2022-10-29 15:03:05.776
40.0, -1663.2531870938838, -1705.2466537463479, 120.29762197472155, 97.3626854964532, -0.01600000075995922, 0.01600000075995922, 0.944000044837594, 0.0, 0.0, 0.0, 0.0, 0.0, 1.6670485857900143E9, 0.0, 2022-10-29 15:03:05.790
40.0, -1793.1286928551272, -1649.6175118554384, 134.08663311135024, 232.44413199601695, -0.01600000075995922, 0.01600000075995922, 0.944000044837594, 0.0, 0.0, 0.0, 0.0, 0.0, 1.6670485857900143E9, 0.0, 2022-10-29 15:03:05.790
41.0, -1846.0108782285824, -1480.3197206612676, -48.33072712738067, 185.5532663515769, -0.01600000075995922, 0.01600000075995922, 0.944000044837594, 0.0, 0.0, 0.0, 0.0, 0.0, 1.667048585805694E9, 0.0, 2022-10-29 15:03:05.805
41.0, -1783.4722711695358, -1596.5128024346195, 152.51125024305657, 126.2646323540248, -0.01600000075995922, 0.01600000075995922, 0.944000044837594, 0.0, 0.0, 0.0, 0.0, 0.0, 1.667048585805694E9, 0.0, 2022-10-29 15:03:05.805
42.0, -1653.6304245078936, -1691.7549646561965, 121.64959580870345, 89.47336653992534, -0.01600000075995922, 0.01600000075995922, 0.944000044837594, 0.0, 0.0, 0.0, 0.0, 0.0, 1.667048585806432E9, 0.0, 2022-10-29 15:03:05.806
42.0, -1765.0233446881175, -1622.1423368309624, 126.17861465504393, 224.33789884205908, -0.01600000075995922, 0.01600000075995922, 0.944000044837594, 0.0, 0.0, 0.0, 0.0, 0.0, 1.667048585806432E9, 0.0, 2022-10-29 15:03:05.806
43.0, -1839.9896392999217, -1470.3846764289774, -46.93761439388618, 171.97929946240038, -0.01600000075995922, 0.01600000075995922, 0.944000044837594, 0.0, 0.0, 0.0, 0.0, 0.0, 1.6670485858200681E9, 0.0, 2022-10-29 15:03:05.820
43.0, -1786.4267921345308, -1599.8020444456488, 147.89434374775738, 129.1761444695294, -0.01600000075995922, 0.01600000075995922, 0.944000044837594, 0.0, 0.0, 0.0, 0.0, 0.0, 1.6670485858200681E9, 0.0, 2022-10-29 15:03:05.820
44.0, -1664.0423059845343, -1703.544999266509, 121.763662757352, 90.64582517603412, -0.01600000075995922, 0.01600000075995922, 0.944000044837594, 0.0, 0.0, 0.0, 0.0, 0.0, 1.6670485858356025E9, 0.0, 2022-10-29 15:03:05.835
44.0, -1784.9757109517232, -1631.2845222726464, 122.85571354441345, 223.92463989695534, -0.01600000075995922, 0.01600000075995922, 0.944000044837594, 0.0, 0.0, 0.0, 0.0, 0.0, 1.6670485858356025E9, 0.0, 2022-10-29 15:03:05.835
45.0, -1842.9665996646509, -1475.4017522195354, -45.20043086446822, 175.53781427023932, -0.01600000075995922, 0.01600000075995922, 0.944000044837594, 0.0, 0.0, 0.0, 0.0, 0.0, 1.6670485858363643E9, 0.0, 2022-10-29 15:03:05.836
45.0, -1788.5099164098501, -1610.8852379643358, 160.3201613505371, 128.69182742526755, -0.01600000075995922, 0.01600000075995922, 0.944000044837594, 0.0, 0.0, 0.0, 0.0, 0.0, 1.6670485858363643E9, 0.0, 2022-10-29 15:03:05.836
46.0, -1656.5400666734204, -1691.2612978620455, 120.8155981185846, 101.62804139591753, -0.01600000075995922, 0.01600000075995922, 0.944000044837594, 0.0, 0.0, 0.0, 0.0, 0.0, 1.667048585849982E9, 0.0, 2022-10-29 15:03:05.849
46.0, -1774.1636601798236, -1624.5171733028255, 124.32362427702174, 223.4814617522061, -0.01600000075995922, 0.01600000075995922, 0.944000044837594, 0.0, 0.0, 0.0, 0.0, 0.0, 1.667048585849982E9, 0.0, 2022-10-29 15:03:05.849
47.0, -1838.8452299134806, -1467.000066969078, -49.29749126592651, 176.9010078040883, -0.01600000075995922, 0.01600000075995922, 0.944000044837594, 0.0, 0.0, 0.0, 0.0, 0.0, 1.6670485858655925E9, 0.0, 2022-10-29 15:03:05.865
47.0, -1788.7268306072801, -1611.2124792104587, 154.5588454687968, 127.10423989407718, -0.01600000075995922, 0.01600000075995922, 0.944000044837594, 0.0, 0.0, 0.0, 0.0, 0.0, 1.6670485858655925E9, 0.0, 2022-10-29 15:03:05.865
48.0, -1657.8490316579118, -1691.603498707991, 121.71878395788372, 100.94176975404844, -0.01600000075995922, 0.01600000075995922, 0.944000044837594, 0.0, 0.0, 0.0, 0.0, 0.0, 1.667048585866328E9, 0.0, 2022-10-29 15:03:05.866
48.0, -1765.0383042879403, -1630.2560497848317, 124.27313562761992, 228.95854523731396, -0.01600000075995922, 0.01600000075995922, 0.944000044837594, 0.0, 0.0, 0.0, 0.0, 0.0, 1.667048585866328E9, 0.0, 2022-10-29 15:03:05.866
49.0, -1842.0652837753296, -1476.3778661079705, -50.885078797116876, 169.1351055460982, -0.01600000075995922, 0.01600000075995922, 0.944000044837594, 0.0, 0.0, 0.0, 0.0, 0.0, 1.6670485858801212E9, 0.0, 2022-10-29 15:03:05.880
49.0, -1800.1335254721344, -1607.048100609798, 157.79198898049071, 129.21915331901982, -0.01600000075995922, 0.01600000075995922, 0.944000044837594, 0.0, 0.0, 0.0, 0.0, 0.0, 1.6670485858801212E9, 0.0, 2022-10-29 15:03:05.880
50.0, -1647.4483698811382, -1695.8426753077656, 120.08257772726938, 100.62200830783695, -0.01600000075995922, 0.01600000075995922, 0.9760000463575125, 0.0, 0.0, 0.0, 0.0, 0.0, 1.667048585895674E9, 0.0, 2022-10-29 15:03:05.895
50.0, -1764.3950414955616, -1633.1974810999818, 128.07100403262302, 228.09649829752743, -0.01600000075995922, 0.01600000075995922, 0.9760000463575125, 0.0, 0.0, 0.0, 0.0, 0.0, 1.667048585895674E9, 0.0, 2022-10-29 15:03:05.895
51.0, -1835.8832291485742, -1462.7104017199017, -50.311004153918475, 177.7911039935425, -0.01600000075995922, 0.01600000075995922, 0.9760000463575125, 0.0, 0.0, 0.0, 0.0, 0.0, 1.667048585896415E9, 0.0, 2022-10-29 15:03:05.896
51.0, -1787.5525020211935, -1595.7741721933708, 151.34627140685916, 133.06938032340258, -0.01600000075995922, 0.01600000075995922, 0.9760000463575125, 0.0, 0.0, 0.0, 0.0, 0.0, 1.667048585896415E9, 0.0, 2022-10-29 15:03:05.896
52.0, -1654.2587277004495, -1705.474787643645, 128.2411694806069, 96.01258161244914, -0.01600000075995922, 0.01600000075995922, 0.9760000463575125, 0.0, 0.0, 0.0, 0.0, 0.0, 1.667048585910008E9, 0.0, 2022-10-29 15:03:05.910
52.0, -1773.883167683147, -1626.2543568322435, 131.2443091450259, 229.87856062641367, -0.01600000075995922, 0.01600000075995922, 0.9760000463575125, 0.0, 0.0, 0.0, 0.0, 0.0, 1.667048585910008E9, 0.0, 2022-10-29 15:03:05.910
53.0, -1827.8237447440624, -1484.2914944142103, -48.30454782769084, 170.45155033050105, -0.01600000075995922, 0.01600000075995922, 0.9760000463575125, 0.0, 0.0, 0.0, 0.0, 0.0, 1.667048585925691E9, 0.0, 2022-10-29 15:03:05.925
53.0, -1797.8671460989863, -1591.2694626967423, 153.8276950274594, 123.25027298973873, -0.01600000075995922, 0.01600000075995922, 0.9760000463575125, 0.0, 0.0, 0.0, 0.0, 0.0, 1.667048585925691E9, 0.0, 2022-10-29 15:03:05.925
54.0, -1633.8613133421168, -1695.861374807544, 120.7071410198696, 94.7092264778912, -0.01600000075995922, 0.01600000075995922, 0.9760000463575125, 0.0, 0.0, 0.0, 0.0, 0.0, 1.6670485859264867E9, 0.0, 2022-10-29 15:03:05.926
54.0, -1747.023206201382, -1627.1126638720743, 124.84721027081832, 219.24041520245373, -0.01600000075995922, 0.01600000075995922, 0.9760000463575125, 0.0, 0.0, 0.0, 0.0, 0.0, 1.6670485859264867E9, 0.0, 2022-10-29 15:03:05.926
55.0, -1816.660143376328, -1456.6218445920385, -47.30786448949948, 185.02407050784677, -0.01600000075995922, 0.01600000075995922, 0.9760000463575125, 0.0, 0.0, 0.0, 0.0, 0.0, 1.6670485859400043E9, 0.0, 2022-10-29 15:03:05.940
55.0, -1779.1900857202709, -1604.1515480941162, 152.50938029307872, 130.04380125924945, -0.01600000075995922, 0.01600000075995922, 0.9760000463575125, 0.0, 0.0, 0.0, 0.0, 0.0, 1.6670485859400043E9, 0.0, 2022-10-29 15:03:05.940
56.0, -1646.5320943919942, -1703.328085069079, 123.77946883346885, 97.7329355920665, -0.01600000075995922, 0.01600000075995922, 0.9760000463575125, 0.0, 0.0, 0.0, 0.0, 0.0, 1.6670485859556696E9, 0.0, 2022-10-29 15:03:05.955
56.0, -1757.4874462774023, -1617.9442991307005, 131.18073084577918, 231.056629112456, -0.01600000075995922, 0.01600000075995922, 0.9760000463575125, 0.0, 0.0, 0.0, 0.0, 0.0, 1.6670485859556696E9, 0.0, 2022-10-29 15:03:05.955
57.0, -1813.0623596189544, -1474.8856460256502, -47.264855640009046, 181.1813233033754, -0.01600000075995922, 0.01600000075995922, 0.9760000463575125, 0.0, 0.0, 0.0, 0.0, 0.0, 1.667048585956407E9, 0.0, 2022-10-29 15:03:05.956
57.0, -1780.0278233103454, -1612.2166423485614, 156.84205439174548, 131.0853633969091, -0.01600000075995922, 0.01600000075995922, 0.9760000463575125, 0.0, 0.0, 0.0, 0.0, 0.0, 1.667048585956407E9, 0.0, 2022-10-29 15:03:05.956
58.0, -1641.131678855978, -1713.240689901635, 122.76408599549904, 90.23256623093039, -0.01600000075995922, 0.01600000075995922, 0.9760000463575125, 0.0, 0.0, 0.0, 0.0, 0.0, 1.6670485859700902E9, 0.0, 2022-10-29 15:03:05.970
58.0, -1732.1571038775146, -1620.3284853524528, 122.12643305305392, 236.8142050942406, -0.01600000075995922, 0.01600000075995922, 0.9760000463575125, 0.0, 0.0, 0.0, 0.0, 0.0, 1.6670485859700902E9, 0.0, 2022-10-29 15:03:05.970
59.0, -1829.686214921996, -1467.1421831673943, -45.98954975511879, 191.50905703101307, -0.01600000075995922, 0.01600000075995922, 0.9760000463575125, 0.0, 0.0, 0.0, 0.0, 0.0, 1.6670485859857066E9, 0.0, 2022-10-29 15:03:05.985
59.0, -1795.578327326104, -1608.1382814468816, 165.55602128850296, 137.90881086606532, -0.01600000075995922, 0.01600000075995922, 0.9760000463575125, 0.0, 0.0, 0.0, 0.0, 0.0, 1.6670485859857066E9, 0.0, 2022-10-29 15:03:05.985
60.0, -1645.1296319086105, -1697.9650685326196, 119.1850017379038, 89.5051556895487, -0.01600000075995922, 0.01600000075995922, 0.9760000463575125, 0.0, 0.0, 0.0, 0.0, 0.0, 1.6670485859864345E9, 0.0, 2022-10-29 15:03:05.986
60.0, -1748.6201434824616, -1615.2889701621607, 125.8195842592977, 229.7626237277873, -0.01600000075995922, 0.01600000075995922, 0.9760000463575125, 0.0, 0.0, 0.0, 0.0, 0.0, 1.6670485859864345E9, 0.0, 2022-10-29 15:03:05.986
61.0, -1849.331909389235, -1490.6530642388389, -39.97018077643588, 180.6278181099333, -0.01600000075995922, 0.01600000075995922, 0.9760000463575125, 0.0, 0.0, 0.0, 0.0, 0.0, 1.6670485860000007E9, 0.0, 2022-10-29 15:03:06.000
61.0, -1814.7453145990148, -1614.1688701254316, 160.0415388038382, 107.5501729757525, -0.01600000075995922, 0.01600000075995922, 0.9760000463575125, 0.0, 0.0, 0.0, 0.0, 0.0, 1.6670485860000007E9, 0.0, 2022-10-29 15:03:06.000
62.0, -1646.135664996691, -1692.3907476486638, 120.72023066971451, 91.84820301178843, -0.01600000075995922, 0.01600000075995922, 0.9760000463575125, 0.0, 0.0, 0.0, 0.0, 0.0, 1.6670485860156531E9, 0.0, 2022-10-29 15:03:06.015
62.0, -1740.631717177108, -1601.2437758785672, 124.72192362230271, 236.31305850017816, -0.01600000075995922, 0.01600000075995922, 0.9760000463575125, 0.0, 0.0, 0.0, 0.0, 0.0, 1.6670485860156531E9, 0.0, 2022-10-29 15:03:06.015
63.0, -1853.1241679443046, -1480.5609442084096, -48.472843325696886, 185.32326250430197, -0.01600000075995922, 0.01600000075995922, 0.9760000463575125, 0.0, 0.0, 0.0, 0.0, 0.0, 1.6670485860165007E9, 0.0, 2022-10-29 15:03:06.016
63.0, -1806.8503857925534, -1610.737511916086, 159.66193895833567, 122.90433224383742, -0.01600000075995922, 0.01600000075995922, 0.9760000463575125, 0.0, 0.0, 0.0, 0.0, 0.0, 1.6670485860165007E9, 0.0, 2022-10-29 15:03:06.016
64.0, -1653.0731794144958, -1693.9110169806518, 123.12685629120097, 82.36942657409236, -0.01600000075995922, 0.01600000075995922, 0.9760000463575125, 0.0, 0.0, 0.0, 0.0, 0.0, 1.6670485860300028E9, 0.0, 2022-10-29 15:03:06.030
64.0, -1751.3502704501152, -1620.8502013962716, 123.76637918362394, 233.91391267860308, -0.01600000075995922, 0.01600000075995922, 0.9760000463575125, 0.0, 0.0, 0.0, 0.0, 0.0, 1.6670485860300028E9, 0.0, 2022-10-29 15:03:06.030
65.0, -1860.970478051342, -1474.1339261345565, -49.30871096579358, 167.4334510662593, -0.01600000075995922, 0.01600000075995922, 0.9760000463575125, 0.0, 0.0, 0.0, 0.0, 0.0, 1.6670485860456417E9, 0.0, 2022-10-29 15:03:06.045
65.0, -1803.8622057279572, -1616.0313403033651, 158.75875311903656, 115.46006138203666, -0.01600000075995922, 0.01600000075995922, 0.9760000463575125, 0.0, 0.0, 0.0, 0.0, 0.0, 1.6670485860456417E9, 0.0, 2022-10-29 15:03:06.045
66.0, -1656.098758478649, -1699.1375271687284, 126.50959580112249, 74.99247391149402, -0.01600000075995922, 0.01600000075995922, 0.9760000463575125, 0.0, 0.0, 0.0, 0.0, 0.0, 1.6670485860463848E9, 0.0, 2022-10-29 15:03:06.046
66.0, -1744.8839834267274, -1610.2756342715584, 126.3356904531829, 225.24669453129172, -0.01600000075995922, 0.01600000075995922, 0.9760000463575125, 0.0, 0.0, 0.0, 0.0, 0.0, 1.6670485860463848E9, 0.0, 2022-10-29 15:03:06.046
67.0, -1853.7487312369049, -1487.8425294221379, -46.331750601064414, 173.8268100405112, -0.01600000075995922, 0.01600000075995922, 0.9760000463575125, 0.0, 0.0, 0.0, 0.0, 0.0, 1.667048586059908E9, 0.0, 2022-10-29 15:03:06.059
67.0, -1809.4870152613148, -1608.8226831387728, 163.7440397599712, 115.50307023152709, -0.01600000075995922, 0.01600000075995922, 0.9760000463575125, 0.0, 0.0, 0.0, 0.0, 0.0, 1.667048586059908E9, 0.0, 2022-10-29 15:03:06.059
68.0, -1634.1044068392366, -1686.756588365417, 127.04814139474183, 82.29462857497856, -0.01600000075995922, 0.01600000075995922, 0.9760000463575125, 0.0, 0.0, 0.0, 0.0, 0.0, 1.6670485860757024E9, 0.0, 2022-10-29 15:03:06.075
68.0, -1741.9780811611563, -1602.3002976160496, 127.2089570928365, 224.8708345857449, -0.01600000075995922, 0.01600000075995922, 0.9760000463575125, 0.0, 0.0, 0.0, 0.0, 0.0, 1.6670485860757024E9, 0.0, 2022-10-29 15:03:06.075
69.0, -1846.4334869235754, -1481.9652766417712, -42.23843009956181, 164.74446299811825, -0.01600000075995922, 0.01600000075995922, 0.9760000463575125, 0.0, 0.0, 0.0, 0.0, 0.0, 1.6670485860764384E9, 0.0, 2022-10-29 15:03:06.076
69.0, -1798.9404973862693, -1617.0635526911356, 159.71055765775964, 110.1456635450013, -0.01600000075995922, 0.01600000075995922, 0.9760000463575125, 0.0, 0.0, 0.0, 0.0, 0.0, 1.6670485860764384E9, 0.0, 2022-10-29 15:03:06.076
70.0, -1659.861097834073, -1690.9845452653244, 119.1476027383469, 69.79775287304074, -0.01600000075995922, 0.01600000075995922, 0.9920000471174717, 0.0, 0.0, 0.0, 0.0, 0.0, 1.667048586089923E9, 0.0, 2022-10-29 15:03:06.089
70.0, -1735.5753724370152, -1598.9811364053749, 116.0565754249692, 217.00021512899548, -0.01600000075995922, 0.01600000075995922, 0.9920000471174717, 0.0, 0.0, 0.0, 0.0, 0.0, 1.667048586089923E9, 0.0, 2022-10-29 15:03:06.089
71.0, -1837.6970806270838, -1487.1020292309113, -47.17509804107249, 166.47790662758052, -0.01600000075995922, 0.01600000075995922, 0.9920000471174717, 0.0, 0.0, 0.0, 0.0, 0.0, 1.6670485861056476E9, 0.0, 2022-10-29 15:03:06.105
71.0, -1803.1254454366863, -1606.4254072671756, 160.2752825510688, 108.53937651403248, -0.01600000075995922, 0.01600000075995922, 0.9920000471174717, 0.0, 0.0, 0.0, 0.0, 0.0, 1.6670485861056476E9, 0.0, 2022-10-29 15:03:06.105
72.0, -1663.0512324962765, -1693.7202820829116, 121.33918411238119, 74.69889176497236, -0.01600000075995922, 0.01600000075995922, 0.9920000471174717, 0.0, 0.0, 0.0, 0.0, 0.0, 1.6670485861063812E9, 0.0, 2022-10-29 15:03:06.106
72.0, -1716.3672462645918, -1609.8436758266762, 118.30425529833883, 214.97879920294508, -0.01600000075995922, 0.01600000075995922, 0.9920000471174717, 0.0, 0.0, 0.0, 0.0, 0.0, 1.6670485861063812E9, 0.0, 2022-10-29 15:03:06.106
73.0, -1851.7516246605664, -1480.82086725533, -50.69808379933238, 176.56628675805405, -0.01600000075995922, 0.01600000075995922, 0.9920000471174717, 0.0, 0.0, 0.0, 0.0, 0.0, 1.6670485861199877E9, 0.0, 2022-10-29 15:03:06.119
73.0, -1811.4953415375203, -1602.743475760799, 155.1329201119952, 114.40166969457641, -0.01600000075995922, 0.01600000075995922, 0.9920000471174717, 0.0, 0.0, 0.0, 0.0, 0.0, 1.6670485861199877E9, 0.0, 2022-10-29 15:03:06.119
74.0, -1651.0124945389107, -1689.1258149873465, 117.76009985478595, 79.51027305796742, -0.01600000075995922, 0.01600000075995922, 0.9920000471174717, 0.0, 0.0, 0.0, 0.0, 0.0, 1.6670485861354244E9, 0.0, 2022-10-29 15:03:06.135
74.0, -1730.9902550913393, -1601.8346800715663, 119.36825683573261, 225.37759102974087, -0.01600000075995922, 0.01600000075995922, 0.9920000471174717, 0.0, 0.0, 0.0, 0.0, 0.0, 1.6670485861354244E9, 0.0, 2022-10-29 15:03:06.135
75.0, -1858.8873537760228, -1490.0528102959506, -42.662908744532615, 177.85094239283353, -0.01600000075995922, 0.01600000075995922, 0.9920000471174717, 0.0, 0.0, 0.0, 0.0, 0.0, 1.6670485861505969E9, 0.0, 2022-10-29 15:03:06.150
75.0, -1810.377111450769, -1626.0037835352123, 162.6744283726439, 109.27987670525908, -0.01600000075995922, 0.01600000075995922, 0.9920000471174717, 0.0, 0.0, 0.0, 0.0, 0.0, 1.6670485861505969E9, 0.0, 2022-10-29 15:03:06.150
76.0, -1649.1949031604454, -1678.760682260152, 109.5715889018029, 68.7561907353811, -0.01600000075995922, 0.01600000075995922, 0.9920000471174717, 0.0, 0.0, 0.0, 0.0, 0.0, 1.6670485861513243E9, 0.0, 2022-10-29 15:03:06.151
76.0, -1712.4141720114276, -1600.0937566421926, 121.30739496275783, 228.3826006441377, -0.01600000075995922, 0.01600000075995922, 0.9920000471174717, 0.0, 0.0, 0.0, 0.0, 0.0, 1.6670485861513243E9, 0.0, 2022-10-29 15:03:06.151
77.0, -1844.2606050493196, -1486.5690934872255, -47.06664094235748, 176.880438354332, -0.01600000075995922, 0.01600000075995922, 0.9920000471174717, 0.0, 0.0, 0.0, 0.0, 0.0, 1.6670485861656227E9, 0.0, 2022-10-29 15:03:06.165
77.0, -1813.4363496145234, -1618.9858612683602, 166.60693317605183, 119.26727953692898, -0.01600000075995922, 0.01600000075995922, 0.9920000471174717, 0.0, 0.0, 0.0, 0.0, 0.0, 1.6670485861656227E9, 0.0, 2022-10-29 15:03:06.165
78.0, -1646.4161574933678, -1687.0426907120273, 114.13239689776674, 74.04253932274878, -0.01600000075995922, 0.01600000075995922, 0.9920000471174717, 0.0, 0.0, 0.0, 0.0, 0.0, 1.6670485861664116E9, 0.0, 2022-10-29 15:03:06.166
78.0, -1719.3105475297198, -1617.1458304901607, 120.55006522173062, 239.79490535892546, -0.01600000075995922, 0.01600000075995922, 0.9920000471174717, 0.0, 0.0, 0.0, 0.0, 0.0, 1.6670485861664116E9, 0.0, 2022-10-29 15:03:06.166
79.0, -1848.2510783020407, -1492.6819599648006, -48.19796067895368, 185.2372448053211, -0.01600000075995922, 0.01600000075995922, 0.9920000471174717, 0.0, 0.0, 0.0, 0.0, 0.0, 1.6670485861800113E9, 0.0, 2022-10-29 15:03:06.180
79.0, -1825.452648172155, -1605.1201821826398, 159.42071541119367, 127.15285859350115, -0.01600000075995922, 0.01600000075995922, 0.9920000471174717, 0.0, 0.0, 0.0, 0.0, 0.0, 1.6670485861800113E9, 0.0, 2022-10-29 15:03:06.180
80.0, -1650.803060141392, -1687.130578360986, 113.79767585173249, 77.66837232979015, -0.01600000075995922, 0.01600000075995922, 0.9920000471174717, 0.0, 0.0, 0.0, 0.0, 0.0, 1.6670485861956112E9, 0.0, 2022-10-29 15:03:06.195
80.0, -1710.7835756307468, -1593.9827601145953, 117.02520951349288, 238.7944821207784, -0.01600000075995922, 0.01600000075995922, 0.9920000471174717, 0.0, 0.0, 0.0, 0.0, 0.0, 1.6670485861956112E9, 0.0, 2022-10-29 15:03:06.195
81.0, -1847.3460225127637, -1499.3333720359951, -47.01802224293351, 184.2592609669082, -0.01600000075995922, 0.01600000075995922, 0.9920000471174717, 0.0, 0.0, 0.0, 0.0, 0.0, 1.6670485861963673E9, 0.0, 2022-10-29 15:03:06.196
81.0, -1823.8706704908982, -1620.687515748199, 155.07308171270415, 124.4844399751164, -0.01600000075995922, 0.01600000075995922, 0.9920000471174717, 0.0, 0.0, 0.0, 0.0, 0.0, 1.6670485861963673E9, 0.0, 2022-10-29 15:03:06.196
82.0, -1654.5130408974364, -1680.3220904916525, 113.90052310051396, 83.57928420975804, -0.01600000075995922, 0.01600000075995922, 0.9920000471174717, 0.0, 0.0, 0.0, 0.0, 0.0, 1.6670485862099965E9, 0.0, 2022-10-29 15:03:06.209
82.0, -1707.6906783673912, -1599.3551264009438, 118.05929185124114, 236.7805459946394, -0.01600000075995922, 0.01600000075995922, 0.9920000471174717, 0.0, 0.0, 0.0, 0.0, 0.0, 1.6670485862099965E9, 0.0, 2022-10-29 15:03:06.209
83.0, -1837.693340727128, -1494.3200361453928, -42.95088104112074, 186.37043449189514, -0.01600000075995922, 0.01600000075995922, 0.9920000471174717, 0.0, 0.0, 0.0, 0.0, 0.0, 1.6670485862256289E9, 0.0, 2022-10-29 15:03:06.225
83.0, -1809.4271768620238, -1621.30272929091, 157.87613672949374, 123.03896864224225, -0.01600000075995922, 0.01600000075995922, 0.9920000471174717, 0.0, 0.0, 0.0, 0.0, 0.0, 1.6670485862256289E9, 0.0, 2022-10-29 15:03:06.225
84.0, -1640.5108554633334, -1672.6048069330864, 115.62648693006486, 71.95754509745166, -0.01600000075995922, 0.01600000075995922, 0.9920000471174717, 0.0, 0.0, 0.0, 0.0, 0.0, 1.667048586226349E9, 0.0, 2022-10-29 15:03:06.226
84.0, -1710.817234730348, -1593.0290856258944, 115.7947824280709, 242.41096537793055, -0.01600000075995922, 0.01600000075995922, 0.9920000471174717, 0.0, 0.0, 0.0, 0.0, 0.0, 1.667048586226349E9, 0.0, 2022-10-29 15:03:06.226
85.0, -1862.552455732599, -1508.499866827391, -45.697837558574975, 181.04668690497056, -0.01600000075995922, 0.01600000075995922, 0.9920000471174717, 0.0, 0.0, 0.0, 0.0, 0.0, 1.6670485862400105E9, 0.0, 2022-10-29 15:03:06.240
85.0, -1818.6946489522234, -1621.0278466441669, 157.97524407831952, 125.83454385912046, -0.01600000075995922, 0.01600000075995922, 0.9920000471174717, 0.0, 0.0, 0.0, 0.0, 0.0, 1.6670485862400105E9, 0.0, 2022-10-29 15:03:06.240
86.0, -1637.3655996005982, -1682.3154571680352, 121.18210831424221, 87.72683326061815, -0.01600000075995922, 0.01600000075995922, 0.9920000471174717, 0.0, 0.0, 0.0, 0.0, 0.0, 1.667048586255679E9, 0.0, 2022-10-29 15:03:06.255
86.0, -1698.2885698787868, -1585.7194511624984, 113.99215064942837, 246.3434701813385, -0.01600000075995922, 0.01600000075995922, 0.9920000471174717, 0.0, 0.0, 0.0, 0.0, 0.0, 1.667048586255679E9, 0.0, 2022-10-29 15:03:06.255
87.0, -1848.8120632953942, -1499.34646168584, -42.79567519295961, 191.9391455259174, -0.01600000075995922, 0.01600000075995922, 0.9920000471174717, 0.0, 0.0, 0.0, 0.0, 0.0, 1.6670485862564268E9, 0.0, 2022-10-29 15:03:06.256
87.0, -1826.6568959578872, -1619.724491509609, 162.04425523011014, 137.0673333760351, -0.01600000075995922, 0.01600000075995922, 0.9920000471174717, 0.0, 0.0, 0.0, 0.0, 0.0, 1.6670485862564268E9, 0.0, 2022-10-29 15:03:06.256
88.0, -1648.5217211684212, -1684.7744413889013, 109.67443615058437, 88.38692560279742, -0.01600000075995922, 0.01600000075995922, 0.9920000471174717, 0.0, 0.0, 0.0, 0.0, 0.0, 1.667048586270102E9, 0.0, 2022-10-29 15:03:06.270
88.0, -1708.7827291544527, -1597.3711094744503, 113.32831840729341, 250.57516698120162, -0.01600000075995922, 0.01600000075995922, 0.9920000471174717, 0.0, 0.0, 0.0, 0.0, 0.0, 1.667048586270102E9, 0.0, 2022-10-29 15:03:06.270
89.0, -1848.3632753007114, -1507.1796821430326, -43.40714883571491, 202.97372034518048, -0.01600000075995922, 0.01600000075995922, 0.9920000471174717, 0.0, 0.0, 0.0, 0.0, 0.0, 1.667048586285684E9, 0.0, 2022-10-29 15:03:06.285
89.0, -1817.1575500704348, -1625.9906938853674, 153.82582507748157, 132.678560778033, -0.01600000075995922, 0.01600000075995922, 0.9920000471174717, 0.0, 0.0, 0.0, 0.0, 0.0, 1.667048586285684E9, 0.0, 2022-10-29 15:03:06.285
90.0, -1644.725722713396, -1682.5660304650664, 113.45734495576471, 77.79739887826145, -0.01600000075995922, 0.01600000075995922, 0.9920000471174717, 0.0, 0.0, 0.0, 0.0, 0.0, 1.6670485862864056E9, 0.0, 2022-10-29 15:03:06.286
90.0, -1707.4251454705372, -1586.2131179566495, 113.91735265031457, 241.71721393615007, -0.01600000075995922, 0.01600000075995922, 0.9920000471174717, 0.0, 0.0, 0.0, 0.0, 0.0, 1.6670485862864056E9, 0.0, 2022-10-29 15:03:06.286
91.0, -1854.8407820239663, -1503.3331950386055, -42.27208919916302, 198.45405124872923, -0.01600000075995922, 0.01600000075995922, 0.9920000471174717, 0.0, 0.0, 0.0, 0.0, 0.0, 1.667048586300036E9, 0.0, 2022-10-29 15:03:06.300
91.0, -1830.217280715704, -1618.6922791218385, 157.81068848026916, 131.88383203744888, -0.01600000075995922, 0.01600000075995922, 0.9920000471174717, 0.0, 0.0, 0.0, 0.0, 0.0, 1.667048586300036E9, 0.0, 2022-10-29 15:03:06.300
92.0, -1635.1777581265196, -1677.0739873801358, 112.38960351841524, 80.99314339039847, -0.01600000075995922, 0.01600000075995922, 0.9920000471174717, 0.0, 0.0, 0.0, 0.0, 0.0, 1.6670485863156185E9, 0.0, 2022-10-29 15:03:06.315
92.0, -1579.260643939022, -1504.8646840704605, 89.68280093744397, 248.11805271031335, -0.01600000075995922, 0.01600000075995922, 0.9920000471174717, 0.0, 0.0, 0.0, 0.0, 0.0, 1.6670485863156185E9, 0.0, 2022-10-29 15:03:06.315
93.0, -1407.8292398201302, -1579.464468486607, -4.177468250505626, 216.47101928526536, -0.01600000075995922, 0.01600000075995922, 0.9920000471174717, 0.0, 0.0, 0.0, 0.0, 0.0, 1.6670485863163297E9, 0.0, 2022-10-29 15:03:06.316
93.0, -1360.8598362766206, -1651.9904783773236, 163.95534410746768, 110.15688324486837, -0.01600000075995922, 0.01600000075995922, 0.9920000471174717, 0.0, 0.0, 0.0, 0.0, 0.0, 1.6670485863163297E9, 0.0, 2022-10-29 15:03:06.316
94.0, -1169.997781937942, -1682.01626517158, 113.93044230015948, 71.75746044982225, -0.01600000075995922, 0.01600000075995922, 0.9920000471174717, 0.0, 0.0, 0.0, 0.0, 0.0, 1.6670485863299844E9, 0.0, 2022-10-29 15:03:06.329
94.0, -1234.0061696795747, -1585.109847469721, 118.90824914118275, 237.82397808227688, -0.01600000075995922, 0.01600000075995922, 0.9920000471174717, 0.0, 0.0, 0.0, 0.0, 0.0, 1.6670485863299844E9, 0.0, 2022-10-29 15:03:06.329
95.0, -1367.1578278020024, -1492.5024447669275, -44.10651012742892, 183.69266612362117, -0.01600000075995922, 0.01600000075995922, 0.9920000471174717, 0.0, 0.0, 0.0, 0.0, 0.0, 1.6670485863457208E9, 0.0, 2022-10-29 15:03:06.345
95.0, -1343.368324183859, -1628.4646377060562, 161.28318558912724, 120.75388976931572, -0.01600000075995922, 0.01600000075995922, 0.9920000471174717, 0.0, 0.0, 0.0, 0.0, 0.0, 1.6670485863457208E9, 0.0, 2022-10-29 15:03:06.345
96.0, -1168.5429608551785, -1682.1228523203172, 110.43176589161158, 72.9037397862412, -0.01600000075995922, 0.01600000075995922, 0.9920000471174717, 0.0, 0.0, 0.0, 0.0, 0.0, 1.6670485863464532E9, 0.0, 2022-10-29 15:03:06.346
96.0, -1219.4242997523397, -1596.193040988408, 107.22480167960748, 244.44921085378155, -0.01600000075995922, 0.01600000075995922, 0.9920000471174717, 0.0, 0.0, 0.0, 0.0, 0.0, 1.6670485863464532E9, 0.0, 2022-10-29 15:03:06.346
97.0, -1374.712425712496, -1503.4809210868552, -45.31075791316107, 168.7237165509723, -0.01600000075995922, 0.01600000075995922, 0.9920000471174717, 0.0, 0.0, 0.0, 0.0, 0.0, 1.6670485863599405E9, 0.0, 2022-10-29 15:03:06.359
97.0, -1325.2185896988958, -1630.8413441278972, 167.88410901091993, 121.85155040631071, -0.01600000075995922, 0.01600000075995922, 0.9920000471174717, 0.0, 0.0, 0.0, 0.0, 0.0, 1.6670485863599405E9, 0.0, 2022-10-29 15:03:06.359
98.0, -1147.3639074061066, -1667.9131024386734, 113.90239305049181, 68.6982222860679, -0.01600000075995922, 0.01600000075995922, 0.9920000471174717, 0.0, 0.0, 0.0, 0.0, 0.0, 1.667048586375825E9, 0.0, 2022-10-29 15:03:06.375
98.0, -1206.8133571017534, -1598.4762499113567, 121.13909946475178, 244.62685610167682, -0.01600000075995922, 0.01600000075995922, 0.9920000471174717, 0.0, 0.0, 0.0, 0.0, 0.0, 1.667048586375825E9, 0.0, 2022-10-29 15:03:06.375
99.0, -1364.1883472371846, -1508.4306786782108, -34.825948387384415, 170.98822597414255, -0.01600000075995922, 0.01600000075995922, 0.9920000471174717, 0.0, 0.0, 0.0, 0.0, 0.0, 1.6670485863763876E9, 0.0, 2022-10-29 15:03:06.376
99.0, -1334.5197208886966, -1624.4779043532908, 166.315220979508, 121.0231625661254, -0.01600000075995922, 0.01600000075995922, 0.9920000471174717, 0.0, 0.0, 0.0, 0.0, 0.0, 1.6670485863763876E9, 0.0, 2022-10-29 15:03:06.376
100.0, -1141.510963975452, -1656.437219424639, 113.0702653103508, 77.11112723639235, -0.01600000075995922, 0.01600000075995922, 0.9920000471174717, 0.0, 0.0, 0.0, 0.0, 0.0, 1.667048586390739E9, 0.0, 2022-10-29 15:03:06.390
100.0, -1207.31076379586, -1595.8489701924846, 133.75939186522737, 249.5429545934312, -0.01600000075995922, 0.01600000075995922, 0.9920000471174717, 0.0, 0.0, 0.0, 0.0, 0.0, 1.667048586390739E9, 0.0, 2022-10-29 15:03:06.390
0.0, -2380.128430300392, -1039.622999532614, -40.703201167751104, -320.14852585690096, -0.01600000075995922, 0.01600000075995922, 0.9920000471174717, 0.0, 0.0, 0.0, 0.0, 0.0, 1.6670485863914287E9, 0.0, 2022-10-29 15:03:06.391
1.0, -2309.64627573546, -1133.7843306669965, 157.20669463742524, -392.7661632965319, -0.01600000075995922, 0.01600000075995922, 0.9920000471174717, 0.0, 0.0, 0.0, 0.0, 0.0, 1.6670485864050112E9, 0.0, 2022-10-29 15:03:06.405
1.0, -2103.3720936793834, -1166.2971509317867, 101.1979529010132, -422.4665787946433, -0.01600000075995922, 0.01600000075995922, 0.9920000471174717, 0.0, 0.0, 0.0, 0.0, 0.0, 1.6670485864050112E9, 0.0, 2022-10-29 15:03:06.405
2.0, -2174.8303621327505, -1112.3808832205832, 131.04235454741865, -244.13692920748144, -0.03200000151991844, 0.01600000075995922, 0.9920000471174717, 0.0, 0.0, 0.0, 0.0, 0.0, 1.667048586420598E9, 0.0, 2022-10-29 15:03:06.420
2.0, -2380.5323394956067, -1041.9660468548536, -33.659099601209164, -315.8943896573037, -0.03200000151991844, 0.01600000075995922, 0.9920000471174717, 0.0, 0.0, 0.0, 0.0, 0.0, 1.667048586420598E9, 0.0, 2022-10-29 15:03:06.420
3.0, -2333.5928551517427, -1135.4766353969462, 150.17381277075037, -387.1058247135952, -0.03200000151991844, 0.01600000075995922, 0.9920000471174717, 0.0, 0.0, 0.0, 0.0, 0.0, 1.6670485864213076E9, 0.0, 2022-10-29 15:03:06.421
3.0, -2104.725937463343, -1173.8461389923468, 99.98061546543613, -416.52948761498556, -0.03200000151991844, 0.01600000075995922, 0.9920000471174717, 0.0, 0.0, 0.0, 0.0, 0.0, 1.6670485864213076E9, 0.0, 2022-10-29 15:03:06.421
4.0, -2195.4259911887348, -1116.5116027216427, 138.35572891077027, -242.96821047132835, -0.03200000151991844, 0.01600000075995922, 0.9920000471174717, 0.0, 0.0, 0.0, 0.0, 0.0, 1.6670485864350991E9, 0.0, 2022-10-29 15:03:06.435
4.0, -2399.815263667144, -1038.7964816424064, -26.981508230324835, -304.6840395401232, -0.03200000151991844, 0.01600000075995922, 0.9920000471174717, 0.0, 0.0, 0.0, 0.0, 0.0, 1.6670485864350991E9, 0.0, 2022-10-29 15:03:06.435
5.0, -2308.984313443303, -1134.913780453615, 145.2502344790846, -399.5765211158432, -0.03200000151991844, 0.01600000075995922, 0.9920000471174717, 0.0, 0.0, 0.0, 0.0, 0.0, 1.6670485864505904E9, 0.0, 2022-10-29 15:03:06.450
5.0, -2547.2028509709053, -1145.3948500794359, 99.6384146194905, -420.32735601998866, -0.03200000151991844, 0.01600000075995922, 0.9920000471174717, 0.0, 0.0, 0.0, 0.0, 0.0, 1.6670485864505904E9, 0.0, 2022-10-29 15:03:06.450
6.0, -2702.7565098279156, -1138.9678320055827, 147.93548264726996, -225.81889922451228, -0.03200000151991844, 0.01600000075995922, 0.9920000471174717, 0.0, 0.0, 0.0, 0.0, 0.0, 1.667048586451358E9, 0.0, 2022-10-29 15:03:06.451
6.0, -2897.508060120512, -1044.2623454276472, -43.17714498843998, -335.1660941289738, -0.03200000151991844, 0.01600000075995922, 0.9920000471174717, 0.0, 0.0, 0.0, 0.0, 0.0, 1.667048586451358E9, 0.0, 2022-10-29 15:03:06.451
7.0, -2786.3582334374078, -1116.8145346180536, 134.21565965982154, -402.84332372713834, -0.03200000151991844, 0.01600000075995922, 0.9920000471174717, 0.0, 0.0, 0.0, 0.0, 0.0, 1.6670485864649467E9, 0.0, 2022-10-29 15:03:06.464
7.0, -2557.820426945109, -1160.517135550268, 87.29487481573597, -410.8373598824255, -0.03200000151991844, 0.01600000075995922, 0.9920000471174717, 0.0, 0.0, 0.0, 0.0, 0.0, 1.6670485864649467E9, 0.0, 2022-10-29 15:03:06.464
8.0, -2722.723835691344, -1161.253895841539, 163.3158212150447, -204.0021928329952, -0.03200000151991844, 0.01600000075995922, 0.9920000471174717, 0.0, 0.0, 0.0, 0.0, 0.0, 1.667048586480714E9, 0.0, 2022-10-29 15:03:06.480
8.0, -2892.040326385293, -1031.9543346734717, -41.69053475605324, -338.82558623561636, -0.03200000151991844, 0.01600000075995922, 0.9920000471174717, 0.0, 0.0, 0.0, 0.0, 0.0, 1.667048586480714E9, 0.0, 2022-10-29 15:03:06.480
9.0, -2793.0900533576496, -1101.0171972052194, 126.93968429602683, -405.6501186438836, -0.03200000151991844, 0.01600000075995922, 0.9920000471174717, 0.0, 0.0, 0.0, 0.0, 0.0, 1.667048586481471E9, 0.0, 2022-10-29 15:03:06.481
9.0, -3023.7465131748468, -1126.0614372584969, 75.75541350245476, -412.9335738075897, -0.03200000151991844, 0.01600000075995922, 0.9920000471174717, 0.0, 0.0, 0.0, 0.0, 0.0, 1.667048586481471E9, 0.0, 2022-10-29 15:03:06.481
10.0, -3214.0438426202163, -1155.0980205144733, 169.8924352871254, -213.327633372508, -0.03200000151991844, 0.01600000075995922, 0.9920000471174717, 0.0, 0.0, 0.0, 0.0, 0.0, 1.6670485864950783E9, 0.0, 2022-10-29 15:03:06.495
10.0, -3424.192561030388, -1060.9011603305116, -37.204524759203196, -351.73385093268007, -0.03200000151991844, 0.01600000075995922, 0.9920000471174717, 0.0, 0.0, 0.0, 0.0, 0.0, 1.6670485864950783E9, 0.0, 2022-10-29 15:03:06.495
11.0, -3294.829421563074, -1115.9244384285994, 118.21262774942443, -407.98942606616765, -0.03200000151991844, 0.01600000075995922, 0.9920000471174717, 0.0, 0.0, 0.0, 0.0, 0.0, 1.667048586510636E9, 0.0, 2022-10-29 15:03:06.510
11.0, -3480.584642512258, -1113.5832610563375, 70.66353971278295, -416.656644213479, -0.03200000151991844, 0.01600000075995922, 0.9920000471174717, 0.0, 0.0, 0.0, 0.0, 0.0, 1.667048586510636E9, 0.0, 2022-10-29 15:03:06.510
12.0, -3713.3111369549297, -1172.9092940534465, 184.94366265879944, -200.9990531685762, -0.01600000075995922, 0.01600000075995922, 0.9920000471174717, 0.0, 0.0, 0.0, 0.0, 0.0, 1.6670485865114021E9, 0.0, 2022-10-29 15:03:06.511
12.0, -3917.2927603381686, -1071.1391364592128, -32.44924196554348, -356.01416643196717, -0.01600000075995922, 0.01600000075995922, 0.9920000471174717, 0.0, 0.0, 0.0, 0.0, 0.0, 1.6670485865114021E9, 0.0, 2022-10-29 15:03:06.511
13.0, -3772.801725550089, -1087.0168817210943, 112.41017296817154, -423.2276484356262, -0.01600000075995922, 0.01600000075995922, 0.9920000471174717, 0.0, 0.0, 0.0, 0.0, 0.0, 1.667048586524882E9, 0.0, 2022-10-29 15:03:06.524
13.0, -3950.5236413944513, -1109.7835227013566, 70.72898796200752, -420.8864710633643, -0.01600000075995922, 0.01600000075995922, 0.9920000471174717, 0.0, 0.0, 0.0, 0.0, 0.0, 1.667048586524882E9, 0.0, 2022-10-29 15:03:06.524
14.0, -3714.8183166370727, -1177.9506791937165, 186.2731970930472, -189.61105780350044, -0.01600000075995922, 0.01600000075995922, 0.9920000471174717, 0.0, 0.0, 0.0, 0.0, 0.0, 1.6670485865407238E9, 0.0, 2022-10-29 15:03:06.540
14.0, -3931.698854967486, -1071.715081052389, -31.317922228947282, -356.9304419211112, -0.01600000075995922, 0.01600000075995922, 0.9920000471174717, 0.0, 0.0, 0.0, 0.0, 0.0, 1.6670485865407238E9, 0.0, 2022-10-29 15:03:06.540
15.0, -3780.0459117642604, -1083.703330360353, 98.03960738843307, -432.1136507303454, -0.01600000075995922, 0.01600000075995922, 0.9920000471174717, 0.0, 0.0, 0.0, 0.0, 0.0, 1.6670485865413198E9, 0.0, 2022-10-29 15:03:06.541
15.0, -3936.308281662874, -1104.1736727678217, 45.58003070997074, -421.34273885795847, -0.01600000075995922, 0.01600000075995922, 0.9920000471174717, 0.0, 0.0, 0.0, 0.0, 0.0, 1.6670485865413198E9, 0.0, 2022-10-29 15:03:06.541
16.0, -3698.557231629733, -1176.3986207121052, 181.75352799659595, -178.36891853669658, -0.01600000075995922, 0.01600000075995922, 0.9920000471174717, 0.0, 0.0, 0.0, 0.0, 0.0, 1.6670485865549927E9, 0.0, 2022-10-29 15:03:06.554
16.0, -3471.2816413724795, -1084.2774050035514, -50.744832548778504, -334.801453883294, -0.01600000075995922, 0.01600000075995922, 0.9920000471174717, 0.0, 0.0, 0.0, 0.0, 0.0, 1.6670485865549927E9, 0.0, 2022-10-29 15:03:06.554
17.0, -3288.135000642389, -1081.543538135942, 64.58059243485332, -428.3251320752315, -0.01600000075995922, 0.01600000075995922, 0.9920000471174717, 0.0, 0.0, 0.0, 0.0, 0.0, 1.6670485865705976E9, 0.0, 2022-10-29 15:03:06.570
17.0, -3422.5226957001723, -1060.813272681553, -11.043924569152296, -421.49233485618606, -0.01600000075995922, 0.01600000075995922, 0.9920000471174717, 0.0, 0.0, 0.0, 0.0, 0.0, 1.6670485865705976E9, 0.0, 2022-10-29 15:03:06.570
18.0, -3190.6058895979077, -1176.4659389113076, 142.45652921218425, -637.7202606443316, -0.01600000075995922, 0.01600000075995922, 0.9920000471174717, 0.0, 0.0, 0.0, 0.0, 0.0, 1.66704858657134E9, 0.0, 2022-10-29 15:03:06.571
18.0, -2992.939087289851, -1095.811256466899, -95.37118877004832, -817.587009113282, -0.01600000075995922, 0.01600000075995922, 0.9920000471174717, 0.0, 0.0, 0.0, 0.0, 0.0, 1.66704858657134E9, 0.0, 2022-10-29 15:03:06.571
19.0, -2792.7796416613273, -1078.3646231736057, 27.2171219275333, -921.874119377695, -0.01600000075995922, 0.01600000075995922, 0.9920000471174717, 0.0, 0.0, 0.0, 0.0, 0.0, 1.6670485865849297E9, 0.0, 2022-10-29 15:03:06.584
19.0, -2909.8254206245765, -1071.0082399607636, -6.599053471814841, -900.4332729317248, -0.01600000075995922, 0.01600000075995922, 0.9920000471174717, 0.0, 0.0, 0.0, 0.0, 0.0, 1.6670485865849297E9, 0.0, 2022-10-29 15:03:06.584
20.0, -2686.08403582545, -1193.923791904468, 195.87539022928104, -1121.5903868614696, -0.01600000075995922, 0.01600000075995922, 0.9920000471174717, 0.0, 0.0, 0.0, 0.0, 0.0, 1.6670485866006668E9, 0.0, 2022-10-29 15:03:06.600
20.0, -2504.4726240271702, -1101.638020597864, -15.574813365470618, -1322.853102976922, -0.01600000075995922, 0.01600000075995922, 0.9920000471174717, 0.0, 0.0, 0.0, 0.0, 0.0, 1.6670485866006668E9, 0.0, 2022-10-29 15:03:06.600
21.0, -2310.34937692713, -1091.5290710176341, 88.75904564838856, -1427.0467157424428, -0.01600000075995922, 0.01600000075995922, 0.9920000471174717, 0.0, 0.0, 0.0, 0.0, 0.0, 1.6670485866015832E9, 0.0, 2022-10-29 15:03:06.601
21.0, -2405.591539148707, -1072.137689747382, 11.627348962239921, -1405.4600131982006, -0.01600000075995922, 0.01600000075995922, 0.9920000471174717, 0.0, 0.0, 0.0, 0.0, 0.0, 1.6670485866015832E9, 0.0, 2022-10-29 15:03:06.601
22.0, -2191.2298234384507, -1172.2622913611121, 217.72201582044363, -1595.0411518020555, -0.01600000075995922, 0.01600000075995922, 0.9920000471174717, 0.0, 0.0, 0.0, 0.0, 0.0, 1.6670485866149788E9, 0.0, 2022-10-29 15:03:06.614
22.0, -2048.019704385195, -1112.9212987641804, 12.46508655231446, -1803.888385027647, -0.01600000075995922, 0.01600000075995922, 0.9920000471174717, 0.0, 0.0, 0.0, 0.0, 0.0, 1.6670485866149788E9, 0.0, 2022-10-29 15:03:06.614
23.0, -1843.8249067044817, -1094.8688016780652, 101.09510565223172, -1916.9343409882858, -0.01600000075995922, 0.01600000075995922, 0.9920000471174717, 0.0, 0.0, 0.0, 0.0, 0.0, 1.6670485866307435E9, 0.0, 2022-10-29 15:03:06.630
23.0, -1940.1329404134303, -1061.4602753738873, 21.19962289882824, -1887.8229597331956, -0.01600000075995922, 0.01600000075995922, 0.9920000471174717, 0.0, 0.0, 0.0, 0.0, 0.0, 1.6670485866307435E9, 0.0, 2022-10-29 15:03:06.630
24.0, -1712.8012516568415, -1177.872141294647, 228.55463604209945, -2090.6246446804143, -0.01600000075995922, 0.01600000075995922, 0.9920000471174717, 0.0, 0.0, 0.0, 0.0, 0.0, 1.6670485866314547E9, 0.0, 2022-10-29 15:03:06.631
24.0, -1540.5657690474764, -1120.5170355741866, 23.346325473394245, -2281.400681320112, -0.01600000075995922, 0.01600000075995922, 0.9920000471174717, 0.0, 0.0, 0.0, 0.0, 0.0, 1.6670485866314547E9, 0.0, 2022-10-29 15:03:06.631
25.0, -1343.054172587581, -1092.9502330007963, 105.46891865041107, -2402.442543386016, -0.01600000075995922, 0.01600000075995922, 0.9920000471174717, 0.0, 0.0, 0.0, 0.0, 0.0, 1.6670485866449544E9, 0.0, 2022-10-29 15:03:06.644
25.0, -1418.4636453441344, -1046.122945655603, 8.07444400433451, -2386.03934218036, -0.01600000075995922, 0.01600000075995922, 0.9920000471174717, 0.0, 0.0, 0.0, 0.0, 0.0, 1.6670485866449544E9, 0.0, 2022-10-29 15:03:06.644
26.0, -1200.6761812744662, -1182.1954656434245, 227.89828359987587, -2564.946806310676, -0.01600000075995922, 0.01600000075995922, 0.9920000471174717, 0.0, 0.0, 0.0, 0.0, 0.0, 1.6670485866607063E9, 0.0, 2022-10-29 15:03:06.660
26.0, -1091.5103715178557, -1145.8473779740743, 37.16338585969061, -2771.920349658467, -0.01600000075995922, 0.01600000075995922, 0.9920000471174717, 0.0, 0.0, 0.0, 0.0, 0.0, 1.6670485866607063E9, 0.0, 2022-10-29 15:03:06.660
27.0, -891.6201986861415, -1095.87109486619, 102.93139653047547, -2902.4540778119117, -0.01600000075995922, 0.01600000075995922, 0.9920000471174717, 0.0, 0.0, 0.0, 0.0, 0.0, 1.6670485866613588E9, 0.0, 2022-10-29 15:03:06.661
27.0, -924.7875014431775, -1021.2189518506639, -4.673004994634539, -2888.085382182151, -0.01600000075995922, 0.01600000075995922, 0.9920000471174717, 0.0, 0.0, 0.0, 0.0, 0.0, 1.6670485866613588E9, 0.0, 2022-10-29 15:03:06.661
28.0, -692.6687407433055, -1169.9921720880084, 236.70387804554775, -3037.144704766106, -0.01600000075995922, 0.01600000075995922, 0.9920000471174717, 0.0, 0.0, 0.0, 0.0, 0.0, 1.6670485866749234E9, 0.0, 2022-10-29 15:03:06.674
28.0, -612.6105723418295, -1142.186015917454, 43.61658323323354, -3256.74041046435, -0.01600000075995922, 0.01600000075995922, 0.9920000471174717, 0.0, 0.0, 0.0, 0.0, 0.0, 1.6670485866749234E9, 0.0, 2022-10-29 15:03:06.674
29.0, -404.72823330480605, -1103.8370817718096, 103.77100407052785, -3398.8005102812313, -0.01600000075995922, 0.01600000075995922, 0.9920000471174717, 0.0, 0.0, 0.0, 0.0, 0.0, 1.6670485867070353E9, 0.0, 2022-10-29 15:03:06.707
29.0, -420.45264266850427, -1022.9019068307243, -18.359168882481754, -3380.3478438998573, -0.01600000075995922, 0.01600000075995922, 0.9920000471174717, 0.0, 0.0, 0.0, 0.0, 0.0, 1.6670485867070353E9, 0.0, 2022-10-29 15:03:06.707
30.0, -202.0967138055712, -1169.9659927883185, -248.96327010029927, -3525.027743635699, -0.01600000075995922, 0.01600000075995922, 0.9920000471174717, 0.0, 0.0, 0.0, 0.0, 0.0, 1.6670485867077603E9, 0.0, 2022-10-29 15:03:06.707
30.0, -125.9691802575253, -1167.0675703226589, -430.72614784678444, -3739.1744150985032, -0.01600000075995922, 0.01600000075995922, 0.9920000471174717, 0.0, 0.0, 0.0, 0.0, 0.0, 1.6670485867077603E9, 0.0, 2022-10-29 15:03:06.707
31.0, 72.6456866892986, -1111.6646923790686, -388.9907342912629, -3878.717562245205, -0.01600000075995922, 0.01600000075995922, 0.9920000471174717, 0.0, 0.0, 0.0, 0.0, 0.0, 1.6670485867085445E9, 0.0, 2022-10-29 15:03:06.708
31.0, 74.67645236523822, -1011.7158660632558, -515.0552819976583, -3870.878731938079, -0.01600000075995922, 0.01600000075995922, 0.9920000471174717, 0.0, 0.0, 0.0, 0.0, 0.0, 1.6670485867085445E9, 0.0, 2022-10-29 15:03:06.708
32.0, 290.7660018550232, -1167.8342498135753, -740.8723112721927, -4009.1858421494253, -0.01600000075995922, 0.01600000075995922, 0.9920000471174717, 0.0, 0.0, 0.0, 0.0, 0.0, 1.6670485867092664E9, 0.0, 2022-10-29 15:03:06.709
32.0, 352.21068817703053, -1164.5468777525239, -921.741352929268, -4231.145164619666, -0.01600000075995922, 0.01600000075995922, 0.9920000471174717, 0.0, 0.0, 0.0, 0.0, 0.0, 1.6670485867092664E9, 0.0, 2022-10-29 15:03:06.709
33.0, 565.4336043507792, -1098.2347116381861, -877.5189059032127, -4380.067980855238, -0.01600000075995922, 0.01600000075995922, 0.9920000471174717, 0.0, 0.0, 0.0, 0.0, 0.0, 1.6670485867200446E9, 0.0, 2022-10-29 15:03:06.720
33.0, 571.2042699824087, -1006.382768726442, -1010.5621069269255, -4360.081955492031, -0.01600000075995922, 0.01600000075995922, 0.9920000471174717, 0.0, 0.0, 0.0, 0.0, 0.0, 1.6670485867200446E9, 0.0, 2022-10-29 15:03:06.720
34.0, 775.8983443072066, -1174.5137111344375, -1218.8951039086096, -4498.703217299655, -0.01600000075995922, 0.01600000075995922, 0.9920000471174717, 0.0, 0.0, 0.0, 0.0, 0.0, 1.6670485867350938E9, 0.0, 2022-10-29 15:03:06.735
34.0, 834.9981133569963, -1169.0422374992631, -1412.5022448147647, -4718.216645198874, -0.01600000075995922, 0.01600000075995922, 0.9920000471174717, 0.0, 0.0, 0.0, 0.0, 0.0, 1.6670485867350938E9, 0.0, 2022-10-29 15:03:06.735
35.0, 1048.2995674298145, -1106.8140421365388, -1374.1402210192755, -4870.27723749727, -0.01600000075995922, 0.01600000075995922, 0.9920000471174717, 0.0, 0.0, 0.0, 0.0, 0.0, 1.6670485867506757E9, 0.0, 2022-10-29 15:03:06.750
35.0, 1068.3940498917364, -999.8529034038074, -1498.682629443705, -4871.920923527796, -0.01600000075995922, 0.01600000075995922, 0.9920000471174717, 0.0, 0.0, 0.0, 0.0, 0.0, 1.6670485867506757E9, 0.0, 2022-10-29 15:03:06.750
36.0, 1275.5601980872452, -1168.8178435019217, -1715.5051993248053, -4980.761361988261, -0.01600000075995922, 0.01600000075995922, 0.9920000471174717, 0.0, 0.0, 0.0, 0.0, 0.0, 1.6670485867514417E9, 0.0, 2022-10-29 15:03:06.751
36.0, 1317.5237455400638, -1168.260598408524, -1893.5506165153347, -5221.064893741161, -0.01600000075995922, 0.01600000075995922, 0.9920000471174717, 0.0, 0.0, 0.0, 0.0, 0.0, 1.6670485867514417E9, 0.0, 2022-10-29 15:03:06.751
37.0, 1523.865245795343, -1101.757697396446, -1857.5148104922846, -5378.862492571585, -0.01600000075995922, 0.01600000075995922, 0.9920000471174717, 0.0, 0.0, 0.0, 0.0, 0.0, 1.667048586765123E9, 0.0, 2022-10-29 15:03:06.765
37.0, 1561.5148186492734, -996.9170819385909, -1992.2073073964566, -5361.4158592782915, -0.01600000075995922, 0.01600000075995922, 0.9920000471174717, 0.0, 0.0, 0.0, 0.0, 0.0, 1.667048586765123E9, 0.0, 2022-10-29 15:03:06.765
38.0, 1788.6520326081663, -1161.9102482837625, -2210.4173801611178, -5494.741422748659, -0.01600000075995922, 0.01600000075995922, 0.9920000471174717, 0.0, 0.0, 0.0, 0.0, 0.0, 1.6670485867806616E9, 0.0, 2022-10-29 15:03:06.780
38.0, 1796.7807051618584, -1185.2584437071346, -2381.962851228658, -5720.597720972728, -0.01600000075995922, 0.01600000075995922, 0.9920000471174717, 0.0, 0.0, 0.0, 0.0, 0.0, 1.6670485867806616E9, 0.0, 2022-10-29 15:03:06.780
39.0, 2009.2107625450008, -1112.816581565421, -2348.013909380883, -5875.5455160369165, -0.01600000075995922, 0.01600000075995922, 0.9920000471174717, 0.0, 0.0, 0.0, 0.0, 0.0, 1.6670485867813091E9, 0.0, 2022-10-29 15:03:06.781
39.0, 2048.719065676909, -995.4024224565364, -2495.223851436749, -5847.1671551731415, -0.01600000075995922, 0.01600000075995922, 0.9920000471174717, 0.0, 0.0, 0.0, 0.0, 0.0, 1.6670485867813091E9, 0.0, 2022-10-29 15:03:06.781
40.0, 2287.663143795915, -1148.4615680431016, -2694.319295527879, -5981.708186129108, -0.01600000075995922, 0.01600000075995922, 0.9920000471174717, 0.0, 0.0, 0.0, 0.0, 0.0, 1.667048586794967E9, 0.0, 2022-10-29 15:03:06.794
40.0, 2289.2843904267065, -1190.7261774423532, -2871.3736392301507, -6210.137535522692, -0.01600000075995922, 0.01600000075995922, 0.9920000471174717, 0.0, 0.0, 0.0, 0.0, 0.0, 1.667048586794967E9, 0.0, 2022-10-29 15:03:06.794
41.0, 2502.85885719629, -1104.700998661574, -2843.3748782118782, -6357.773826173507, -0.01600000075995922, 0.01600000075995922, 0.9920000471174717, 0.0, 0.0, 0.0, 0.0, 0.0, 1.6670485868107088E9, 0.0, 2022-10-29 15:03:06.810
41.0, 2533.7541707302444, -998.4728803201579, -2987.839733700268, -6355.309232102707, -0.01600000075995922, 0.01600000075995922, 0.9920000471174717, 0.0, 0.0, 0.0, 0.0, 0.0, 1.6670485868107088E9, 0.0, 2022-10-29 15:03:06.810
42.0, 2289.579842523206, -1146.2288477695547, -3197.040387471672, -6465.342698649038, -0.01600000075995922, 0.01600000075995922, 0.9920000471174717, 0.0, 0.0, 0.0, 0.0, 0.0, 1.6670485868113804E9, 0.0, 2022-10-29 15:03:06.811
42.0, 2286.4158871606924, -1188.3064621710218, -3368.5110605400987, -6687.930324311834, -0.01600000075995922, 0.01600000075995922, 0.9920000471174717, 0.0, 0.0, 0.0, 0.0, 0.0, 1.6670485868113804E9, 0.0, 2022-10-29 15:03:06.811
43.0, 2507.7356867385097, -1116.6350194201805, -3322.4560625357553, -6846.999489127193, -0.01600000075995922, 0.01600000075995922, 0.9920000471174717, 0.0, 0.0, 0.0, 0.0, 0.0, 1.667048586824954E9, 0.0, 2022-10-29 15:03:06.824
43.0, 2533.230584736448, -1008.1779207051732, -3474.3333997363225, -6830.929139017593, -0.01600000075995922, 0.01600000075995922, 0.9920000471174717, 0.0, 0.0, 0.0, 0.0, 0.0, 1.667048586824954E9, 0.0, 2022-10-29 15:03:06.824
44.0, 2767.6643435088918, -1157.4261082368903, -3683.807066204492, -6955.293902194127, -0.01600000075995922, 0.01600000075995922, 0.9920000471174717, 0.0, 0.0, 0.0, 0.0, 0.0, 1.6670485868406608E9, 0.0, 2022-10-29 15:03:06.840
44.0, 2794.9001649362035, -1170.4222605829127, -3865.9888127460144, -7181.699965711683, -0.01600000075995922, 0.01600000075995922, 0.9920000471174717, 0.0, 0.0, 0.0, 0.0, 0.0, 1.6670485868406608E9, 0.0, 2022-10-29 15:03:06.840
45.0, 3002.333715978544, -1115.748663130682, -3819.200794350356, -7335.839942385443, -0.01600000075995922, 0.01600000075995922, 0.9920000471174717, 0.0, 0.0, 0.0, 0.0, 0.0, 1.667048586841359E9, 0.0, 2022-10-29 15:03:06.841
45.0, 3017.484050699044, -1016.2897637090646, -3953.2724678618833, -7316.355063616298, -0.01600000075995922, 0.01600000075995922, 0.9920000471174717, 0.0, 0.0, 0.0, 0.0, 0.0, 1.667048586841359E9, 0.0, 2022-10-29 15:03:06.841
46.0, 3255.9868206232786, -1147.1638227584772, -4171.912629121449, -7437.529692130629, -0.01600000075995922, 0.01600000075995922, 0.9920000471174717, 0.0, 0.0, 0.0, 0.0, 0.0, 1.667048586855012E9, 0.0, 2022-10-29 15:03:06.855
46.0, 3262.8514069919474, -1194.7652693944983, -4337.997846253682, -7658.815832608845, -0.01600000075995922, 0.01600000075995922, 0.9920000471174717, 0.0, 0.0, 0.0, 0.0, 0.0, 1.667048586855012E9, 0.0, 2022-10-29 15:03:06.855
47.0, 3483.382087679114, -1102.2326646908186, -4313.989558488131, -7815.196009356063, -0.01600000075995922, 0.01600000075995922, 0.9920000471174717, 0.0, 0.0, 0.0, 0.0, 0.0, 1.667048586870608E9, 0.0, 2022-10-29 15:03:06.870
47.0, 3491.0152234886773, -1003.705000358168, -4446.613890716806, -7812.8249127841555, -0.01600000075995922, 0.01600000075995922, 0.9920000471174717, 0.0, 0.0, 0.0, 0.0, 0.0, 1.667048586870608E9, 0.0, 2022-10-29 15:03:06.870
48.0, 3278.0952392113395, -1146.056812371593, -4665.740238970611, -7934.0930387973785, -0.01600000075995922, 0.01600000075995922, 0.9920000471174717, 0.0, 0.0, 0.0, 0.0, 0.0, 1.6670485868713574E9, 0.0, 2022-10-29 15:03:06.871
48.0, 3284.0024111913517, -1183.721344825346, -4840.490804300178, -8158.509475538507, -0.01600000075995922, 0.01600000075995922, 0.9920000471174717, 0.0, 0.0, 0.0, 0.0, 0.0, 1.6670485868713574E9, 0.0, 2022-10-29 15:03:06.871
49.0, 3473.7163162436336, -1121.6165661611594, -4803.205871691927, -8306.72919058241, -0.01600000075995922, 0.01600000075995922, 0.9920000471174717, 0.0, 0.0, 0.0, 0.0, 0.0, 1.6670485868849957E9, 0.0, 2022-10-29 15:03:06.884
49.0, 3478.6567240851, -1015.3173897205852, -4940.149788369425, -8311.970660370309, -0.01600000075995922, 0.01600000075995922, 0.9920000471174717, 0.0, 0.0, 0.0, 0.0, 0.0, 1.6670485868849957E9, 0.0, 2022-10-29 15:03:06.884
50.0, 3254.8573708366603, -1134.889471103903, -5159.781023117248, -8421.869490518235, -0.01600000075995922, 0.01600000075995922, 0.9920000471174717, 0.0, 0.0, 0.0, 0.0, 0.0, 1.66704858690063E9, 0.0, 2022-10-29 15:03:06.900
50.0, 3282.0258740647696, -1186.2644767952152, -5335.014035541099, -8651.263734100387, -0.01600000075995922, 0.01600000075995922, 0.9920000471174717, 0.0, 0.0, 0.0, 0.0, 0.0, 1.66704858690063E9, 0.0, 2022-10-29 15:03:06.900
51.0, 3480.924973408226, -1135.1176050012, -5293.323500785045, -8797.20958997123, -0.01600000075995922, 0.01600000075995922, 0.9920000471174717, 0.0, 0.0, 0.0, 0.0, 0.0, 1.6670485869013796E9, 0.0, 2022-10-29 15:03:06.901
51.0, 3469.7408025907353, -1013.5633766413666, -5417.08053021878, -8782.983010539785, -0.01600000075995922, 0.01600000075995922, 0.9920000471174717, 0.0, 0.0, 0.0, 0.0, 0.0, 1.6670485869013796E9, 0.0, 2022-10-29 15:03:06.901
52.0, 3271.997332333587, -1136.5238073845394, -5649.75653601205, -8911.55516116647, -0.01600000075995922, 0.01600000075995922, 0.9920000471174717, 0.0, 0.0, 0.0, 0.0, 0.0, 1.6670485869151E9, 0.0, 2022-10-29 15:03:06.915
52.0, 3290.186335768085, -1169.8126568901353, -5828.912703489419, -9133.899693332147, -0.01600000075995922, 0.01600000075995922, 0.9920000471174717, 0.0, 0.0, 0.0, 0.0, 0.0, 1.6670485869151E9, 0.0, 2022-10-29 15:03:06.915
53.0, 3473.6471280944534, -1116.6312795202248, -5778.953249931335, -9275.817676950712, -0.01600000075995922, 0.01600000075995922, 0.9920000471174717, 0.0, 0.0, 0.0, 0.0, 0.0, 1.6670485869306731E9, 0.0, 2022-10-29 15:03:06.930
53.0, 3485.038863359485, -1011.4391134665348, -5920.590741053224, -9275.189373758156, -0.01600000075995922, 0.01600000075995922, 0.9920000471174717, 0.0, 0.0, 0.0, 0.0, 0.0, 1.6670485869306731E9, 0.0, 2022-10-29 15:03:06.930
54.0, 3264.22021037573, -1149.4152425318025, -6149.979374785442, -9401.330589413643, -0.01600000075995922, 0.01600000075995922, 0.9920000471174717, 0.0, 0.0, 0.0, 0.0, 0.0, 1.6670485869313543E9, 0.0, 2022-10-29 15:03:06.931
54.0, 3271.33537004143, -1199.810394434724, -6308.970001701731, -9616.640369762667, -0.01600000075995922, 0.01600000075995922, 0.9920000471174717, 0.0, 0.0, 0.0, 0.0, 0.0, 1.6670485869313543E9, 0.0, 2022-10-29 15:03:06.931
55.0, 3463.8168010609224, -1117.9589440044947, -6272.27597328648, -9773.192581907846, -0.01600000075995922, 0.01600000075995922, 0.9920000471174717, 0.0, 0.0, 0.0, 0.0, 0.0, 1.6670485869449449E9, 0.0, 2022-10-29 15:03:06.944
55.0, 3480.2648810660467, -996.6216298420914, -6419.684130039997, -9765.87359769456, -0.01600000075995922, 0.01600000075995922, 0.9920000471174717, 0.0, 0.0, 0.0, 0.0, 0.0, 1.6670485869449449E9, 0.0, 2022-10-29 15:03:06.944
56.0, 3290.4350391151384, -1134.6164584071375, -6631.28953948291, -9885.634544025641, -0.01600000075995922, 0.01600000075995922, 0.9920000471174717, 0.0, 0.0, 0.0, 0.0, 0.0, 1.6670485869607217E9, 0.0, 2022-10-29 15:03:06.960
56.0, 3272.1506682317704, -1184.577781915199, -6792.595164471772, -10095.783262435813, -0.01600000075995922, 0.01600000075995922, 0.9920000471174717, 0.0, 0.0, 0.0, 0.0, 0.0, 1.6670485869607217E9, 0.0, 2022-10-29 15:03:06.960
57.0, 3452.776616391726, -1130.7007831535302, -6763.616549665108, -10266.580753512215, -0.01600000075995922, 0.01600000075995922, 0.9920000471174717, 0.0, 0.0, 0.0, 0.0, 0.0, 1.6670485869613833E9, 0.0, 2022-10-29 15:03:06.961
57.0, 3493.8444578051567, -1004.0341115542687, -6906.663983070292, -10261.745062869508, -0.01600000075995922, 0.01600000075995922, 0.9920000471174717, 0.0, 0.0, 0.0, 0.0, 0.0, 1.6670485869613833E9, 0.0, 2022-10-29 15:03:06.961
58.0, 3290.681872512214, -1136.7295018821023, -7128.774771488737, -10386.446417042054, -0.01600000075995922, 0.01600000075995922, 0.9920000471174717, 0.0, 0.0, 0.0, 0.0, 0.0, 1.667048586975031E9, 0.0, 2022-10-29 15:03:06.975
58.0, 3263.216047237627, -1190.9505714396946, -7288.868668891955, -10588.943300142884, -0.01600000075995922, 0.01600000075995922, 0.9920000471174717, 0.0, 0.0, 0.0, 0.0, 0.0, 1.667048586975031E9, 0.0, 2022-10-29 15:03:06.975
59.0, 3459.852507107891, -1112.8801598646678, -7255.892101032659, -10756.730171754956, -0.01600000075995922, 0.01600000075995922, 0.9920000471174717, 0.0, 0.0, 0.0, 0.0, 0.0, 1.667048586990666E9, 0.0, 2022-10-29 15:03:06.990
59.0, 3488.3468048702925, -1004.3856621501036, -7407.208453239873, -10757.764254092705, -0.01600000075995922, 0.01600000075995922, 0.9920000471174717, 0.0, 0.0, 0.0, 0.0, 0.0, 1.667048586990666E9, 0.0, 2022-10-29 15:03:06.990
60.0, 3290.693092212081, -1144.3514179917984, -7620.227544866037, -10869.200183122419, -0.01600000075995922, 0.01600000075995922, 1.008000047877431, 0.0, 0.0, 0.0, 0.0, 0.0, 1.667048586991374E9, 0.0, 2022-10-29 15:03:06.991
60.0, 3255.739987226203, -1180.8603213592432, -7779.255570781883, -11085.183145463467, -0.01600000075995922, 0.01600000075995922, 1.008000047877431, 0.0, 0.0, 0.0, 0.0, 0.0, 1.667048586991374E9, 0.0, 2022-10-29 15:03:06.991
61.0, 3434.9522532029077, -1122.394465351943, -7746.70161161758, -11245.209724667482, -0.01600000075995922, 0.01600000075995922, 1.008000047877431, 0.0, 0.0, 0.0, 0.0, 0.0, 1.6670485870050263E9, 0.0, 2022-10-29 15:03:07.005
61.0, 3484.9846348101273, -1007.1120492178015, -7888.847729133442, -11235.123214486986, -0.01600000075995922, 0.01600000075995922, 1.008000047877431, 0.0, 0.0, 0.0, 0.0, 0.0, 1.6670485870050263E9, 0.0, 2022-10-29 15:03:07.005
62.0, 3293.419479279779, -1133.5057081202976, -8116.695524083916, -11354.857981518377, -0.01600000075995922, 0.01600000075995922, 1.008000047877431, 0.0, 0.0, 0.0, 0.0, 0.0, 1.6670485870206552E9, 0.0, 2022-10-29 15:03:07.020
62.0, 3289.0475362315774, -1179.5027376753278, -8264.997516926844, -11569.980766869616, -0.01600000075995922, 0.01600000075995922, 1.008000047877431, 0.0, 0.0, 0.0, 0.0, 0.0, 1.6670485870206552E9, 0.0, 2022-10-29 15:03:07.020
63.0, 3463.281995367259, -1129.5675934669562, -8235.757109123282, -11731.555664655287, -0.01600000075995922, 0.01600000075995922, 1.008000047877431, 0.0, 0.0, 0.0, 0.0, 0.0, 1.6670485870213466E9, 0.0, 2022-10-29 15:03:07.021
63.0, 3460.8978091455065, -1023.8144424199127, -8370.83481572289, -11724.595710837748, -0.01600000075995922, 0.01600000075995922, 1.008000047877431, 0.0, 0.0, 0.0, 0.0, 0.0, 1.6670485870213466E9, 0.0, 2022-10-29 15:03:07.021
64.0, 3277.051807123702, -1143.9400289966725, -8597.968289781827, -11847.849723727442, -0.01600000075995922, 0.01600000075995922, 1.008000047877431, 0.0, 0.0, 0.0, 0.0, 0.0, 1.6670485870349555E9, 0.0, 2022-10-29 15:03:07.034
64.0, 3288.752084135078, -1169.6630608919077, -8770.17198324157, -12070.796379785985, -0.01600000075995922, 0.01600000075995922, 1.008000047877431, 0.0, 0.0, 0.0, 0.0, 0.0, 1.6670485870349555E9, 0.0, 2022-10-29 15:03:07.034
65.0, 3477.7928071953356, -1114.6341729438864, -8727.568912896328, -12212.130939011462, -0.01600000075995922, 0.01600000075995922, 1.008000047877431, 0.0, 0.0, 0.0, 0.0, 0.0, 1.667048587050609E9, 0.0, 2022-10-29 15:03:07.050
65.0, 3435.2420954494737, -1024.7942962083034, -8835.12843562197, -12206.274255680852, -0.01600000075995922, 0.01600000075995922, 1.008000047877431, 0.0, 0.0, 0.0, 0.0, 0.0, 1.667048587050609E9, 0.0, 2022-10-29 15:03:07.050
66.0, 3286.6558702099137, -1127.4620297919028, -8609.399293996394, -12357.700934936758, -0.01600000075995922, 0.01600000075995922, 1.008000047877431, 0.0, 0.0, 0.0, 0.0, 0.0, 1.6670485870513575E9, 0.0, 2022-10-29 15:03:07.051
66.0, 3344.917901669629, -1154.9914333657362, -8788.151552278548, -12562.123866514768, -0.01600000075995922, 0.01600000075995922, 1.008000047877431, 0.0, 0.0, 0.0, 0.0, 0.0, 1.6670485870513575E9, 0.0, 2022-10-29 15:03:07.051
67.0, 3494.1698291013017, -1133.681483418215, -8718.957793248352, -12704.6776331258, -0.01600000075995922, 0.01600000075995922, 1.008000047877431, 0.0, 0.0, 0.0, 0.0, 0.0, 1.6670485870650795E9, 0.0, 2022-10-29 15:03:07.065
67.0, 3425.409898465965, -1056.5460468321107, -8812.21967844339, -12698.832169495057, -0.01600000075995922, 0.01600000075995922, 1.008000047877431, 0.0, 0.0, 0.0, 0.0, 0.0, 1.6670485870650795E9, 0.0, 2022-10-29 15:03:07.065
68.0, 3256.138286571484, -1117.738289907109, -8610.654030431528, -12870.315932213329, -0.01600000075995922, 0.01600000075995922, 1.008000047877431, 0.0, 0.0, 0.0, 0.0, 0.0, 1.6670485870806627E9, 0.0, 2022-10-29 15:03:07.080
68.0, 3331.940448823385, -1158.7986515206285, -8797.884641913231, -13059.58852907084, -0.01600000075995922, 0.01600000075995922, 1.008000047877431, 0.0, 0.0, 0.0, 0.0, 0.0, 1.6670485870806627E9, 0.0, 2022-10-29 15:03:07.080
69.0, 3498.5604716492817, -1118.0000829040073, -8717.11963242013, -13190.163396123797, -0.01600000075995922, 0.01600000075995922, 1.008000047877431, 0.0, 0.0, 0.0, 0.0, 0.0, 1.667048587081352E9, 0.0, 2022-10-29 15:03:07.081
69.0, 3451.8622108525597, -1024.0949349165894, -8840.442833459005, -13196.698871296365, -0.01600000075995922, 0.01600000075995922, 1.008000047877431, 0.0, 0.0, 0.0, 0.0, 0.0, 1.667048587081352E9, 0.0, 2022-10-29 15:03:07.081
70.0, 3302.7224804195575, -1127.2451155944727, -8600.0046653077, -13331.905604444444, -0.01600000075995922, 0.01600000075995922, 1.008000047877431, 0.0, 0.0, 0.0, 0.0, 0.0, 1.6670485870950408E9, 0.0, 2022-10-29 15:03:07.095
70.0, 3300.8188713421114, -1188.1045075734146, -8772.440232564695, -13541.272683763877, -0.01600000075995922, 0.01600000075995922, 1.008000047877431, 0.0, 0.0, 0.0, 0.0, 0.0, 1.6670485870950408E9, 0.0, 2022-10-29 15:03:07.095
71.0, 3477.136454753112, -1133.3187131225131, -8729.59780862229, -13695.225665439852, -0.01600000075995922, 0.01600000075995922, 1.008000047877431, 0.0, 0.0, 0.0, 0.0, 0.0, 1.6670485871106105E9, 0.0, 2022-10-29 15:03:07.110
71.0, 3468.7235498027876, -1014.6890865280293, -8856.09244482359, -13690.576969794929, -0.01600000075995922, 0.01600000075995922, 1.008000047877431, 0.0, 0.0, 0.0, 0.0, 0.0, 1.6670485871106105E9, 0.0, 2022-10-29 15:03:07.110
72.0, 3277.8801949638873, -1114.940844740253, -9090.081155501306, -13824.448558658827, -0.01600000075995922, 0.01600000075995922, 1.008000047877431, 0.0, 0.0, 0.0, 0.0, 0.0, 1.6670485871114016E9, 0.0, 2022-10-29 15:03:07.111
72.0, 3300.9497678405605, -1166.9890324235894, -9253.593321464024, -14021.144856928382, -0.01600000075995922, 0.01600000075995922, 1.008000047877431, 0.0, 0.0, 0.0, 0.0, 0.0, 1.6670485871114016E9, 0.0, 2022-10-29 15:03:07.111
73.0, 3491.1461199871264, -1133.090579225216, -9213.570782088209, -14187.25999326026, -0.01600000075995922, 0.01600000075995922, 1.008000047877431, 0.0, 0.0, 0.0, 0.0, 0.0, 1.6670485871250384E9, 0.0, 2022-10-29 15:03:07.125
73.0, 3475.014061528258, -1031.481237329077, -9329.68719591247, -14172.494868235197, -0.01600000075995922, 0.01600000075995922, 1.008000047877431, 0.0, 0.0, 0.0, 0.0, 0.0, 1.6670485871250384E9, 0.0, 2022-10-29 15:03:07.125
74.0, 3297.866220327094, -1101.3650079010986, -9102.701447901782, -14318.326657157391, -0.01600000075995922, 0.01600000075995922, 1.008000047877431, 0.0, 0.0, 0.0, 0.0, 0.0, 1.6670485871407795E9, 0.0, 2022-10-29 15:03:07.140
74.0, 3347.496562689077, -1165.4706330415793, -9283.166580363642, -14528.587572566234, -0.01600000075995922, 0.01600000075995922, 1.008000047877431, 0.0, 0.0, 0.0, 0.0, 0.0, 1.6670485871407795E9, 0.0, 2022-10-29 15:03:07.140
75.0, 3494.325034949463, -1130.5250078556128, -9209.559739385732, -14657.39346694015, -0.01600000075995922, 0.01600000075995922, 1.008000047877431, 0.0, 0.0, 0.0, 0.0, 0.0, 1.6670485871413734E9, 0.0, 2022-10-29 15:03:07.141
75.0, 3487.4641884807497, -1006.5174051248468, -9338.556368657388, -14675.193520779256, -0.01600000075995922, 0.01600000075995922, 1.008000047877431, 0.0, 0.0, 0.0, 0.0, 0.0, 1.6670485871413734E9, 0.0, 2022-10-29 15:03:07.141
76.0, 3332.9951006108895, -1104.2222914672457, -9097.12338711787, -14810.624647924677, -0.01600000075995922, 0.01600000075995922, 1.008000047877431, 0.0, 0.0, 0.0, 0.0, 0.0, 1.6670485871549866E9, 0.0, 2022-10-29 15:03:07.154
76.0, 3306.5801872238517, -1180.2207984668203, -9265.448804323561, -15014.763347106054, -0.01600000075995922, 0.01600000075995922, 1.008000047877431, 0.0, 0.0, 0.0, 0.0, 0.0, 1.6670485871549866E9, 0.0, 2022-10-29 15:03:07.154
77.0, 3477.8563854945824, -1135.6411909949966, -9221.850920590106, -15164.239668535069, -0.01600000075995922, 0.01600000075995922, 1.008000047877431, 0.0, 0.0, 0.0, 0.0, 0.0, 1.6670485871707566E9, 0.0, 2022-10-29 15:03:07.170
77.0, 3481.9889749456197, -1012.4675859543495, -9345.25265952805, -15153.767948659137, -0.01600000075995922, 0.01600000075995922, 1.008000047877431, 0.0, 0.0, 0.0, 0.0, 0.0, 1.6670485871707566E9, 0.0, 2022-10-29 15:03:07.170
78.0, 3323.836085619405, -1117.2296635131352, -9586.833367115818, -15296.585378217045, -0.01600000075995922, 0.01600000075995922, 1.008000047877431, 0.0, 0.0, 0.0, 0.0, 0.0, 1.667048587171452E9, 0.0, 2022-10-29 15:03:07.171
78.0, 3287.9517455445603, -1195.0121027915739, -9749.47413638886, -15504.860406749416, -0.01600000075995922, 0.01600000075995922, 1.008000047877431, 0.0, 0.0, 0.0, 0.0, 0.0, 1.667048587171452E9, 0.0, 2022-10-29 15:03:07.171
79.0, 3470.477562882006, -1143.5323799015023, -9703.553774782922, -15655.380160266068, -0.01600000075995922, 0.01600000075995922, 1.008000047877431, 0.0, 0.0, 0.0, 0.0, 0.0, 1.6670485871850045E9, 0.0, 2022-10-29 15:03:07.185
79.0, 3480.672530161217, -982.2117953128181, -9852.48033091845, -15666.669048282318, -0.01600000075995922, 0.01600000075995922, 1.008000047877431, 0.0, 0.0, 0.0, 0.0, 0.0, 1.6670485871850045E9, 0.0, 2022-10-29 15:03:07.185
80.0, 3338.298278748058, -1097.3633149485104, -10082.254174346104, -15775.9807141372, -0.01600000075995922, 0.01600000075995922, 0.9920000471174717, 0.0, 0.0, 0.0, 0.0, 0.0, 1.6670485872007563E9, 0.0, 2022-10-29 15:03:07.200
80.0, 3293.8720071744174, -1196.3771662754007, -10227.717583122663, -15986.645538741257, -0.01600000075995922, 0.01600000075995922, 0.9920000471174717, 0.0, 0.0, 0.0, 0.0, 0.0, 1.6670485872007563E9, 0.0, 2022-10-29 15:03:07.200
81.0, 3459.856247007847, -1144.0335264955647, -10197.841392326634, -16149.47704291204, -0.01600000075995922, 0.01600000075995922, 0.9920000471174717, 0.0, 0.0, 0.0, 0.0, 0.0, 1.6670485872014813E9, 0.0, 2022-10-29 15:03:07.201
81.0, 3495.1833419892937, -1002.1454620766453, -10343.42073800182, -16157.022291072644, -0.01600000075995922, 0.01600000075995922, 0.9920000471174717, 0.0, 0.0, 0.0, 0.0, 0.0, 1.6670485872014813E9, 0.0, 2022-10-29 15:03:07.201
82.0, 3349.8171706115827, -1092.9951118002646, -10572.689694935456, -16259.560998107772, -0.01600000075995922, 0.01600000075995922, 0.9920000471174717, 0.0, 0.0, 0.0, 0.0, 0.0, 1.667048587214976E9, 0.0, 2022-10-29 15:03:07.214
82.0, 3294.1824188707396, -1208.1092324364, -10719.222715099342, -16479.949562596623, -0.01600000075995922, 0.01600000075995922, 0.9920000471174717, 0.0, 0.0, 0.0, 0.0, 0.0, 1.667048587214976E9, 0.0, 2022-10-29 15:03:07.214
83.0, 3464.5610411521047, -1136.2582744876854, -10682.640883682761, -16638.076272623148, -0.01600000075995922, 0.01600000075995922, 0.9920000471174717, 0.0, 0.0, 0.0, 0.0, 0.0, 1.6670485872307045E9, 0.0, 2022-10-29 15:03:07.230
83.0, 3476.278147713281, -1002.08936357731, -10830.168717234861, -16644.488331097178, -0.01600000075995922, 0.01600000075995922, 0.9920000471174717, 0.0, 0.0, 0.0, 0.0, 0.0, 1.6670485872307045E9, 0.0, 2022-10-29 15:03:07.230
84.0, 3343.0180324921384, -1098.6685400330462, -11066.22933248803, -16753.074456360657, -0.01600000075995922, 0.01600000075995922, 0.9920000471174717, 0.0, 0.0, 0.0, 0.0, 0.0, 1.6670485872314923E9, 0.0, 2022-10-29 15:03:07.231
84.0, 3297.0696216365322, -1197.3084013643675, -11223.477166024968, -16963.65700316569, -0.01600000075995922, 0.01600000075995922, 0.9920000471174717, 0.0, 0.0, 0.0, 0.0, 0.0, 1.6670485872314923E9, 0.0, 2022-10-29 15:03:07.231
85.0, 3482.8940307348967, -1125.9735496095382, -11172.938027973752, -17127.84235112043, -0.01600000075995922, 0.01600000075995922, 0.9920000471174717, 0.0, 0.0, 0.0, 0.0, 0.0, 1.6670485872449448E9, 0.0, 2022-10-29 15:03:07.244
85.0, 3475.8424493684433, -1008.7276859986596, -11308.842252463568, -17126.578264935408, -0.01600000075995922, 0.01600000075995922, 0.9920000471174717, 0.0, 0.0, 0.0, 0.0, 0.0, 1.6670485872449448E9, 0.0, 2022-10-29 15:03:07.244
86.0, 3351.5954930405132, -1098.369348036591, -11067.068940028083, -17245.10504428111, -0.01600000075995922, 0.01600000075995922, 0.9920000471174717, 0.0, 0.0, 0.0, 0.0, 0.0, 1.667048587260744E9, 0.0, 2022-10-29 15:03:07.260
86.0, 3306.7727920715697, -1198.7407830473967, -11213.927331488114, -17453.881219407544, -0.01600000075995922, 0.01600000075995922, 0.9920000471174717, 0.0, 0.0, 0.0, 0.0, 0.0, 1.667048587260744E9, 0.0, 2022-10-29 15:03:07.260
87.0, 3471.564003819134, -1134.0816527134739, -11167.625500086695, -17614.902611999772, -0.01600000075995922, 0.01600000075995922, 0.9920000471174717, 0.0, 0.0, 0.0, 0.0, 0.0, 1.6670485872615724E9, 0.0, 2022-10-29 15:03:07.261
87.0, 3480.7342385104857, -1005.3355967388488, -11309.05729671102, -17622.118748964276, -0.01600000075995922, 0.01600000075995922, 0.9920000471174717, 0.0, 0.0, 0.0, 0.0, 0.0, 1.6670485872615724E9, 0.0, 2022-10-29 15:03:07.261
88.0, 3345.798648109194, -1100.9648386058398, -11067.796350569464, -17738.45020703599, -0.01600000075995922, 0.01600000075995922, 0.9920000471174717, 0.0, 0.0, 0.0, 0.0, 0.0, 1.667048587275007E9, 0.0, 2022-10-29 15:03:07.275
88.0, 3303.620056408923, -1185.3407215061598, -11222.358935938217, -17943.501441806555, -0.01600000075995922, 0.01600000075995922, 0.9920000471174717, 0.0, 0.0, 0.0, 0.0, 0.0, 1.667048587275007E9, 0.0, 2022-10-29 15:03:07.275
89.0, 3459.2933920645155, -1140.7461544345133, -11163.995927179698, -18095.461056806147, -0.01600000075995922, 0.01600000075995922, 0.9920000471174717, 0.0, 0.0, 0.0, 0.0, 0.0, 1.6670485872907348E9, 0.0, 2022-10-29 15:03:07.290
89.0, 3468.055977660697, -1015.5791827174835, -11294.099566838238, -18107.58768241247, -0.01600000075995922, 0.01600000075995922, 0.9920000471174717, 0.0, 0.0, 0.0, 0.0, 0.0, 1.6670485872907348E9, 0.0, 2022-10-29 15:03:07.290
90.0, 3355.7019031918608, -1077.2426531868987, -11072.215042367112, -18246.61285341531, -0.01600000075995922, 0.01600000075995922, 0.9920000471174717, 0.0, 0.0, 0.0, 0.0, 0.0, 1.6670485872914634E9, 0.0, 2022-10-29 15:03:07.291
90.0, 3330.442618891131, -1171.3460158719681, -11239.885977080557, -18443.27175268531, -0.01600000075995922, 0.01600000075995922, 0.9920000471174717, 0.0, 0.0, 0.0, 0.0, 0.0, 1.6670485872914634E9, 0.0, 2022-10-29 15:03:07.291
91.0, 3475.7414720696397, -1153.4057157845236, -11162.726231144741, -18570.39843197912, -0.01600000075995922, 0.01600000075995922, 0.9920000471174717, 0.0, 0.0, 0.0, 0.0, 0.0, 1.6670485873049772E9, 0.0, 2022-10-29 15:03:07.304
91.0, 3443.381987703033, -1029.3681938541122, -11283.027593019418, -18590.360147992615, -0.01600000075995922, 0.01600000075995922, 0.9920000471174717, 0.0, 0.0, 0.0, 0.0, 0.0, 1.6670485873049772E9, 0.0, 2022-10-29 15:03:07.304
92.0, 3340.0859509268776, -1098.0103176408447, -11074.397273991257, -18738.910844182596, -0.01600000075995922, 0.01600000075995922, 0.9920000471174717, 0.0, 0.0, 0.0, 0.0, 0.0, 1.667048587320753E9, 0.0, 2022-10-29 15:03:07.320
92.0, 3335.9271821761504, -1186.9600981869735, -11231.955519224517, -18927.947827342898, -0.01600000075995922, 0.01600000075995922, 0.9920000471174717, 0.0, 0.0, 0.0, 0.0, 0.0, 1.667048587320753E9, 0.0, 2022-10-29 15:03:07.320
93.0, 3466.075700634159, -1136.1385976891033, -11166.5278394497, -19064.977761719376, -0.01600000075995922, 0.01600000075995922, 0.9920000471174717, 0.0, 0.0, 0.0, 0.0, 0.0, 1.6670485873213797E9, 0.0, 2022-10-29 15:03:07.321
93.0, 3435.406651047524, -1019.2480245740153, -11290.621459879447, -19090.620385765564, -0.01600000075995922, 0.01600000075995922, 0.9920000471174717, 0.0, 0.0, 0.0, 0.0, 0.0, 1.6670485873213797E9, 0.0, 2022-10-29 15:03:07.321
94.0, 3486.1253042966127, -997.0087094875053, -11119.752910703886, -19203.604633376934, -0.01600000075995922, 0.01600000075995922, 0.9920000471174717, 0.0, 0.0, 0.0, 0.0, 0.0, 1.6670485873350172E9, 0.0, 2022-10-29 15:03:07.335
94.0, 3270.718286548741, -780.0589830079116, -11159.728701330256, -19362.31102789659, -0.01600000075995922, 0.01600000075995922, 0.9920000471174717, 0.0, 0.0, 0.0, 0.0, 0.0, 1.6670485873350172E9, 0.0, 2022-10-29 15:03:07.335
95.0, 3396.823973154649, -687.7694718013518, -11158.608601293527, -19606.36193940509, -0.01600000075995922, 0.01600000075995922, 0.9920000471174717, 0.0, 0.0, 0.0, 0.0, 0.0, 1.6670485873506656E9, 0.0, 2022-10-29 15:03:07.350
95.0, 3452.9112527901307, -525.0726040289737, -11318.201352102682, -19599.693697784096, -0.01600000075995922, 0.01600000075995922, 0.9920000471174717, 0.0, 0.0, 0.0, 0.0, 0.0, 1.6670485873506656E9, 0.0, 2022-10-29 15:03:07.350
96.0, 3422.019679156132, -540.4136736472137, -11098.104499810375, -19706.854921164457, -0.01600000075995922, 0.01600000075995922, 0.9920000471174717, 0.0, 0.0, 0.0, 0.0, 0.0, 1.6670485873513544E9, 0.0, 2022-10-29 15:03:07.351
96.0, 3256.439348517917, -752.821291630622, -11173.878612812608, -19877.274682345334, -0.01600000075995922, 0.01600000075995922, 0.9920000471174717, 0.0, 0.0, 0.0, 0.0, 0.0, 1.6670485873513544E9, 0.0, 2022-10-29 15:03:07.351
97.0, 3423.3623032402247, -684.003392545972, -11165.577904860955, -20081.117929430213, -0.01600000075995922, 0.01600000075995922, 0.9920000471174717, 0.0, 0.0, 0.0, 0.0, 0.0, 1.6670485873650591E9, 0.0, 2022-10-29 15:03:07.365
97.0, 3434.432407109067, -513.4377752668224, -11307.488408679608, -20086.123785520904, -0.01600000075995922, 0.01600000075995922, 0.9920000471174717, 0.0, 0.0, 0.0, 0.0, 0.0, 1.6670485873650591E9, 0.0, 2022-10-29 15:03:07.365
98.0, 3351.705820089206, -577.8575520035811, -11063.130825374741, -20195.824400971178, -0.01600000075995922, 0.01600000075995922, 0.9920000471174717, 0.0, 0.0, 0.0, 0.0, 0.0, 1.667048587380632E9, 0.0, 2022-10-29 15:03:07.380
98.0, 3301.8155546803027, -700.30935635278, -11225.53224105062, -20397.281591884326, -0.01600000075995922, 0.01600000075995922, 0.9920000471174717, 0.0, 0.0, 0.0, 0.0, 0.0, 1.667048587380632E9, 0.0, 2022-10-29 15:03:07.380
99.0, 3453.958424777724, -650.8716188385151, -11168.882106471807, -20559.866262658034, -0.01600000075995922, 0.01600000075995922, 0.9920000471174717, 0.0, 0.0, 0.0, 0.0, 0.0, 1.6670485873813891E9, 0.0, 2022-10-29 15:03:07.381
99.0, 3437.616931921337, -539.9723654524423, -11290.316658033058, -20553.280298836064, -0.01600000075995922, 0.01600000075995922, 0.9920000471174717, 0.0, 0.0, 0.0, 0.0, 0.0, 1.6670485873813891E9, 0.0, 2022-10-29 15:03:07.381
100.0, 3357.276401073206, -570.5310879903845, -11073.959705696441, -20695.95935209561, -0.01600000075995922, 0.01600000075995922, 1.008000047877431, 0.0, 0.0, 0.0, 0.0, 0.0, 1.6670485873956656E9, 0.0, 2022-10-29 15:03:07.395
100.0, 3307.950860557612, -684.7663321369328, -11224.0568505181, -20868.361260253005, -0.01600000075995922, 0.01600000075995922, 1.008000047877431, 0.0, 0.0, 0.0, 0.0, 0.0, 1.6670485873956656E9, 0.0, 2022-10-29 15:03:07.395
0.0, -1447.7077930476516, -176.3811617102474, -377.34094592928886, -434.1070174067281, -0.01600000075995922, 0.01600000075995922, 1.008000047877431, 0.0, 0.0, 0.0, 0.0, 0.0, 1.667048587396376E9, 0.0, 2022-10-29 15:03:07.396
1.0, -1474.5434451797046, -44.93489796761423, -505.15202691499144, -459.23353525903076, -0.01600000075995922, 0.01600000075995922, 1.008000047877431, 0.0, 0.0, 0.0, 0.0, 0.0, 1.667048587410077E9, 0.0, 2022-10-29 15:03:07.410
1.0, -1555.777812117245, -111.25454388186336, -291.8505728421733, -611.5690102041699, -0.01600000075995922, 0.01600000075995922, 1.008000047877431, 0.0, 0.0, 0.0, 0.0, 0.0, 1.667048587410077E9, 0.0, 2022-10-29 15:03:07.410
2.0, -1584.3356881788932, -217.9202305180952, -440.9080254761502, -792.9840772547759, -0.01600000075995922, 0.01600000075995922, 1.008000047877431, 0.0, 0.0, 0.0, 0.0, 0.0, 1.6670485874256647E9, 0.0, 2022-10-29 15:03:07.425
2.0, -1450.5557268639095, -168.1159828081727, -382.3580217198469, -930.7171128229238, -0.01600000075995922, 0.01600000075995922, 1.008000047877431, 0.0, 0.0, 0.0, 0.0, 0.0, 1.6670485874256647E9, 0.0, 2022-10-29 15:03:07.425
3.0, -1450.4510096651502, -37.675752153620124, -504.5891719716601, -954.6393828894943, -0.01600000075995922, 0.01600000075995922, 1.008000047877431, 0.0, 0.0, 0.0, 0.0, 0.0, 1.6670485874264057E9, 0.0, 2022-10-29 15:03:07.426
3.0, -1539.0230603157543, -96.16030766069889, -291.6467482945882, -1083.8921953081153, -0.01600000075995922, 0.01600000075995922, 1.008000047877431, 0.0, 0.0, 0.0, 0.0, 0.0, 1.6670485874264057E9, 0.0, 2022-10-29 15:03:07.426
4.0, -1588.7861691261642, -197.130126664415, -442.0131659130566, -1284.0142419370823, -0.01600000075995922, 0.01600000075995922, 1.008000047877431, 0.0, 0.0, 0.0, 0.0, 0.0, 1.667048587440054E9, 0.0, 2022-10-29 15:03:07.440
4.0, -1461.1807826380245, -174.81788352876902, -378.53771391510963, -1439.4145648959093, -0.01600000075995922, 0.01600000075995922, 1.008000047877431, 0.0, 0.0, 0.0, 0.0, 0.0, 1.667048587440054E9, 0.0, 2022-10-29 15:03:07.440
5.0, -1474.8781662257388, -47.95673713181168, -503.2446779375896, -1440.9722332274541, -0.01600000075995922, 0.01600000075995922, 1.008000047877431, 0.0, 0.0, 0.0, 0.0, 0.0, 1.6670485874556768E9, 0.0, 2022-10-29 15:03:07.455
5.0, -1550.9252919247374, -101.35502869915217, -294.2515886137262, -1581.4821445127018, -0.01600000075995922, 0.01600000075995922, 1.008000047877431, 0.0, 0.0, 0.0, 0.0, 0.0, 1.6670485874556768E9, 0.0, 2022-10-29 15:03:07.455
6.0, -1575.9452226283029, -214.8011539550498, -450.44851026311517, -1771.0015747672878, -0.01600000075995922, 0.01600000075995922, 1.008000047877431, 0.0, 0.0, 0.0, 0.0, 0.0, 1.6670485874563644E9, 0.0, 2022-10-29 15:03:07.456
6.0, -1461.0480161895975, -179.74333177041262, -379.2277254569344, -1906.4420516625978, -0.01600000075995922, 0.01600000075995922, 1.008000047877431, 0.0, 0.0, 0.0, 0.0, 0.0, 1.6670485874563644E9, 0.0, 2022-10-29 15:03:07.456
7.0, -1473.417735293042, -43.270642487332225, -493.8893181984313, -1934.2126787835732, -0.01600000075995922, 0.01600000075995922, 1.008000047877431, 0.0, 0.0, 0.0, 0.0, 0.0, 1.6670485874699965E9, 0.0, 2022-10-29 15:03:07.469
7.0, -1545.7773196357302, -84.47686019912362, -305.6040549292229, -2080.1641445043497, -0.01600000075995922, 0.01600000075995922, 1.008000047877431, 0.0, 0.0, 0.0, 0.0, 0.0, 1.6670485874699965E9, 0.0, 2022-10-29 15:03:07.469
8.0, -1561.7466924465261, -203.0616079941392, -448.0493644415401, -2269.6835747589357, -0.01600000075995922, 0.01600000075995922, 1.008000047877431, 0.0, 0.0, 0.0, 0.0, 0.0, 1.667048587485646E9, 0.0, 2022-10-29 15:03:07.485
8.0, -1441.47898967145, -187.22313168179244, -367.29931454826146, -2404.3536322633736, -0.01600000075995922, 0.01600000075995922, 1.008000047877431, 0.0, 0.0, 0.0, 0.0, 0.0, 1.667048587485646E9, 0.0, 2022-10-29 15:03:07.485
9.0, -1479.3436067728326, -45.17799146473408, -490.80577068496495, -2426.1965179545805, -0.01600000075995922, 0.01600000075995922, 1.008000047877431, 0.0, 0.0, 0.0, 0.0, 0.0, 1.6670485874864173E9, 0.0, 2022-10-29 15:03:07.486
9.0, -1549.7060845391825, -84.77231229562312, -308.5529660442844, -2584.3475373308174, -0.01600000075995922, 0.01600000075995922, 1.008000047877431, 0.0, 0.0, 0.0, 0.0, 0.0, 1.6670485874864173E9, 0.0, 2022-10-29 15:03:07.486
10.0, -1571.5396204805002, -199.36284693796188, -454.1884102188051, -2752.9048283337615, -0.01600000075995922, 0.01600000075995922, 1.008000047877431, 0.0, 0.0, 0.0, 0.0, 0.0, 1.6670485874999695E9, 0.0, 2022-10-29 15:03:07.499
10.0, -1456.7097322409973, -192.30565572157502, -372.2640317394398, -2899.6323232953437, -0.01600000075995922, 0.01600000075995922, 1.008000047877431, 0.0, 0.0, 0.0, 0.0, 0.0, 1.6670485874999695E9, 0.0, 2022-10-29 15:03:07.499
11.0, -1472.40422240505, -62.605925258249044, -497.4123039566912, -2927.294493317604, -0.01600000075995922, 0.01600000075995922, 1.008000047877431, 0.0, 0.0, 0.0, 0.0, 0.0, 1.6670485875157275E9, 0.0, 2022-10-29 15:03:07.515
11.0, -1525.6716174739413, -72.59893793985248, -299.5416771010496, -3066.2972249207087, -0.01600000075995922, 0.01600000075995922, 1.008000047877431, 0.0, 0.0, 0.0, 0.0, 0.0, 1.6670485875157275E9, 0.0, 2022-10-29 15:03:07.515
12.0, -1602.8481929595582, -210.2870947085321, -445.88022246723995, -3249.1521534542553, -0.01600000075995922, 0.01600000075995922, 1.008000047877431, 0.0, 0.0, 0.0, 0.0, 0.0, 1.6670485875164087E9, 0.0, 2022-10-29 15:03:07.516
12.0, -1456.2889934959821, -180.00138486735523, -379.1884565073997, -3402.4394329381175, -0.01600000075995922, 0.01600000075995922, 1.008000047877431, 0.0, 0.0, 0.0, 0.0, 0.0, 1.6670485875164087E9, 0.0, 2022-10-29 15:03:07.516
13.0, -1487.6873235739768, -46.098006853833795, -502.40320044755936, -3420.1796483779326, -0.01600000075995922, 0.01600000075995922, 1.008000047877431, 0.0, 0.0, 0.0, 0.0, 0.0, 1.66704858753001E9, 0.0, 2022-10-29 15:03:07.530
13.0, -1520.9387740800157, -72.14267014525831, -300.90113073494285, -3555.304103726987, -0.01600000075995922, 0.01600000075995922, 1.008000047877431, 0.0, 0.0, 0.0, 0.0, 0.0, 1.66704858753001E9, 0.0, 2022-10-29 15:03:07.530
14.0, -1582.4339490514249, -217.95014971774071, -452.1838238425553, -3738.585380855482, -0.01600000075995922, 0.01600000075995922, 1.008000047877431, 0.0, 0.0, 0.0, 0.0, 0.0, 1.6670485875456715E9, 0.0, 2022-10-29 15:03:07.545
14.0, -1455.6251612538472, -171.20888007152826, -374.91936070797965, -3886.6480201012455, -0.01600000075995922, 0.01600000075995922, 1.008000047877431, 0.0, 0.0, 0.0, 0.0, 0.0, 1.6670485875456715E9, 0.0, 2022-10-29 15:03:07.545
15.0, -1485.5050919498317, -61.61485176999122, -500.94276951486245, -3900.6520754853263, -0.01600000075995922, 0.01600000075995922, 1.008000047877431, 0.0, 0.0, 0.0, 0.0, 0.0, 1.667048587546527E9, 0.0, 2022-10-29 15:03:07.546
15.0, -1522.7993743079714, -72.04543274641037, -308.88768709031865, -4043.74251774, -0.01600000075995922, 0.01600000075995922, 1.008000047877431, 0.0, 0.0, 0.0, 0.0, 0.0, 1.667048587546527E9, 0.0, 2022-10-29 15:03:07.546
16.0, -1576.7362114689313, -192.41411282029003, -457.47391232987866, -4230.7599549242295, -0.01600000075995922, 0.01600000075995922, 1.008000047877431, 0.0, 0.0, 0.0, 0.0, 0.0, 1.667048587560027E9, 0.0, 2022-10-29 15:03:07.560
16.0, -1457.2127487850375, -176.86734870448709, -376.0955592440441, -4353.260377972852, -0.01600000075995922, 0.01600000075995922, 1.008000047877431, 0.0, 0.0, 0.0, 0.0, 0.0, 1.667048587560027E9, 0.0, 2022-10-29 15:03:07.560
17.0, -1494.6734566912055, -58.67529040481895, -490.54023778811097, -4389.7187926908955, -0.01600000075995922, 0.01600000075995922, 1.008000047877431, 0.0, 0.0, 0.0, 0.0, 0.0, 1.6670485875757134E9, 0.0, 2022-10-29 15:03:07.575
17.0, -1505.3471311647445, -75.97606759984046, -310.05266592651606, -4548.18396366341, -0.01600000075995922, 0.01600000075995922, 1.008000047877431, 0.0, 0.0, 0.0, 0.0, 0.0, 1.6670485875757134E9, 0.0, 2022-10-29 15:03:07.575
18.0, -1571.2142491843551, -211.14727169834077, -459.8917576512322, -4713.618438203353, -0.01600000075995922, 0.01600000075995922, 1.008000047877431, 0.0, 0.0, 0.0, 0.0, 0.0, 1.6670485875764885E9, 0.0, 2022-10-29 15:03:07.576
18.0, -1459.5034375078976, -172.94793355092406, -369.0065788780339, -4871.071966237854, -0.01600000075995922, 0.01600000075995922, 1.008000047877431, 0.0, 0.0, 0.0, 0.0, 0.0, 1.6670485875764885E9, 0.0, 2022-10-29 15:03:07.576
19.0, -1495.9394128262065, -65.97931501828134, -490.8861785340123, -4874.402347148396, -0.01600000075995922, 0.01600000075995922, 1.008000047877431, 0.0, 0.0, 0.0, 0.0, 0.0, 1.667048587589982E9, 0.0, 2022-10-29 15:03:07.589
19.0, -1520.8209672314115, -98.13871473725885, -314.2694031265564, -5021.8011541520245, -0.01600000075995922, 0.01600000075995922, 1.008000047877431, 0.0, 0.0, 0.0, 0.0, 0.0, 1.667048587589982E9, 0.0, 2022-10-29 15:03:07.589
20.0, -1557.393448898103, -182.94842603243887, -457.3205764316954, -5208.758752936963, -0.01600000075995922, 0.01600000075995922, 1.008000047877431, 0.0, 0.0, 0.0, 0.0, 0.0, 1.6670485876056376E9, 0.0, 2022-10-29 15:03:07.605
20.0, -1457.6503170798533, -181.59832214843482, -368.9112114291638, -5346.256174807902, -0.01600000075995922, 0.01600000075995922, 1.008000047877431, 0.0, 0.0, 0.0, 0.0, 0.0, 1.6670485876056376E9, 0.0, 2022-10-29 15:03:07.605
21.0, -1493.1064386097714, -55.08498644735664, -496.8756283130497, -5373.177844638936, -0.01600000075995922, 0.01600000075995922, 1.008000047877431, 0.0, 0.0, 0.0, 0.0, 0.0, 1.6670485876063771E9, 0.0, 2022-10-29 15:03:07.606
21.0, -1519.8916020924225, -71.18525575660169, -312.5172599973157, -5513.530680126045, -0.01600000075995922, 0.01600000075995922, 1.008000047877431, 0.0, 0.0, 0.0, 0.0, 0.0, 1.6670485876063771E9, 0.0, 2022-10-29 15:03:07.606
22.0, -1575.7357882307842, -194.78146949224174, -451.065593755804, -5681.3586906376295, -0.01600000075995922, 0.01600000075995922, 1.008000047877431, 0.0, 0.0, 0.0, 0.0, 0.0, 1.667048587619979E9, 0.0, 2022-10-29 15:03:07.619
22.0, -1456.3245225455612, -191.26970343384892, -371.3739355499856, -5840.012726557907, -0.01600000075995922, 0.01600000075995922, 1.008000047877431, 0.0, 0.0, 0.0, 0.0, 0.0, 1.667048587619979E9, 0.0, 2022-10-29 15:03:07.619
23.0, -1477.1651150486432, -50.60084640048444, -502.6257244949229, -5864.121991622262, -0.01600000075995922, 0.01600000075995922, 1.008000047877431, 0.0, 0.0, 0.0, 0.0, 0.0, 1.6670485876357806E9, 0.0, 2022-10-29 15:03:07.635
23.0, -1503.6436067349277, -65.97931501828134, -304.13801414659247, -5998.674242278095, -0.01600000075995922, 0.01600000075995922, 1.008000047877431, 0.0, 0.0, 0.0, 0.0, 0.0, 1.6670485876357806E9, 0.0, 2022-10-29 15:03:07.635
24.0, -1593.517142570112, -230.7406075662002, -448.0755437412299, -6180.799890320282, -0.01600000075995922, 0.01600000075995922, 1.008000047877431, 0.0, 0.0, 0.0, 0.0, 0.0, 1.6670485876364532E9, 0.0, 2022-10-29 15:03:07.636
24.0, -1466.2595667778514, -194.11950720008463, -375.0296877566725, -6331.54029793432, -0.01600000075995922, 0.01600000075995922, 1.008000047877431, 0.0, 0.0, 0.0, 0.0, 0.0, 1.6670485876364532E9, 0.0, 2022-10-29 15:03:07.636
25.0, -1469.1262000938877, -31.02994993235916, -502.5004378464073, -6352.362190937623, -0.01600000075995922, 0.01600000075995922, 1.008000047877431, 0.0, 0.0, 0.0, 0.0, 0.0, 1.6670485876499436E9, 0.0, 2022-10-29 15:03:07.649
25.0, -1493.5888857040554, -60.23482868634164, -313.46719458606094, -6486.155241902452, -0.01600000075995922, 0.01600000075995922, 1.008000047877431, 0.0, 0.0, 0.0, 0.0, 0.0, 1.6670485876499436E9, 0.0, 2022-10-29 15:03:07.649
26.0, -1573.7349417544901, -222.09021896868944, -449.16572457831353, -6660.135387841146, -0.01600000075995922, 0.01600000075995922, 1.008000047877431, 0.0, 0.0, 0.0, 0.0, 0.0, 1.667048587665662E9, 0.0, 2022-10-29 15:03:07.665
26.0, -1465.93980533164, -185.55139640159905, -364.29056503390893, -6809.813663867768, -0.01600000075995922, 0.01600000075995922, 1.008000047877431, 0.0, 0.0, 0.0, 0.0, 0.0, 1.667048587665662E9, 0.0, 2022-10-29 15:03:07.665
27.0, -1511.3627602434717, -63.22300875093788, -490.9647164330818, -6835.213194416836, -0.01600000075995922, 0.01600000075995922, 1.008000047877431, 0.0, 0.0, 0.0, 0.0, 0.0, 1.6670485876664197E9, 0.0, 2022-10-29 15:03:07.666
27.0, -1483.9025448188186, -55.19905339600518, -316.7564365970902, -6977.148007585201, -0.01600000075995922, 0.01600000075995922, 1.008000047877431, 0.0, 0.0, 0.0, 0.0, 0.0, 1.6670485876664197E9, 0.0, 2022-10-29 15:03:07.666
28.0, -1558.6706247329712, -198.76633289502934, -448.06432404136285, -7142.313209328335, -0.01600000075995922, 0.01600000075995922, 1.008000047877431, 0.0, 0.0, 0.0, 0.0, 0.0, 1.667048587680097E9, 0.0, 2022-10-29 15:03:07.680
28.0, -1463.4826910607517, -198.82430134434253, -365.85945306532085, -7296.767337598372, -0.01600000075995922, 0.01600000075995922, 1.008000047877431, 0.0, 0.0, 0.0, 0.0, 0.0, 1.667048587680097E9, 0.0, 2022-10-29 15:03:07.680
29.0, -1519.6952573447488, -80.99127344042063, -481.16804849915206, -7330.843436044641, -0.01600000075995922, 0.01600000075995922, 1.008000047877431, 0.0, 0.0, 0.0, 0.0, 0.0, 1.667048587695709E9, 0.0, 2022-10-29 15:03:07.695
29.0, -1486.7486086850986, -51.00288564572111, -326.7438394287601, -7475.949684375431, -0.01600000075995922, 0.01600000075995922, 1.008000047877431, 0.0, 0.0, 0.0, 0.0, 0.0, 1.667048587695709E9, 0.0, 2022-10-29 15:03:07.695
30.0, -1565.8923715474084, -204.4883798272349, -454.56988001428545, -7630.523489444051, -0.01600000075995922, 0.01600000075995922, 0.9920000471174717, 0.0, 0.0, 0.0, 0.0, 0.0, 1.6670485876964135E9, 0.0, 2022-10-29 15:03:07.696
30.0, -1476.299328208901, -206.6145129520446, -362.77216565189883, -7776.8358555105515, -0.01600000075995922, 0.01600000075995922, 0.9920000471174717, 0.0, 0.0, 0.0, 0.0, 0.0, 1.6670485876964135E9, 0.0, 2022-10-29 15:03:07.696
31.0, -1524.878758683335, -72.4792611412704, -479.37850637035444, -7817.894347174093, -0.01600000075995922, 0.01600000075995922, 0.9920000471174717, 0.0, 0.0, 0.0, 0.0, 0.0, 1.667048587709956E9, 0.0, 2022-10-29 15:03:07.709
31.0, -1494.232148496434, -38.72853399114683, -322.5794608280994, -7963.363365800586, -0.01600000075995922, 0.01600000075995922, 0.9920000471174717, 0.0, 0.0, 0.0, 0.0, 0.0, 1.667048587709956E9, 0.0, 2022-10-29 15:03:07.709
32.0, -1561.7298628967255, -207.9664867860265, -449.96045331889763, -8130.56681301957, -0.01600000075995922, 0.01600000075995922, 0.9920000471174717, 0.0, 0.0, 0.0, 0.0, 0.0, 1.6670485877256117E9, 0.0, 2022-10-29 15:03:07.725
32.0, -1475.3643532199785, -207.080130496528, -360.85920682456344, -8275.345820104238, -0.01600000075995922, 0.01600000075995922, 0.9920000471174717, 0.0, 0.0, 0.0, 0.0, 0.0, 1.6670485877256117E9, 0.0, 2022-10-29 15:03:07.725
33.0, -1528.1549110445194, -68.24756434140727, -480.58836400602013, -8319.7702217279, -0.01600000075995922, 0.01600000075995922, 0.9920000471174717, 0.0, 0.0, 0.0, 0.0, 0.0, 1.6670485877263193E9, 0.0, 2022-10-29 15:03:07.726
33.0, -1498.9519022405148, -55.02888794802129, -327.39832192100585, -8457.366750947665, -0.01600000075995922, 0.01600000075995922, 0.9920000471174717, 0.0, 0.0, 0.0, 0.0, 0.0, 1.6670485877263193E9, 0.0, 2022-10-29 15:03:07.726
34.0, -1545.4687778893858, -203.52909548860043, -457.6253782780841, -8612.105111614335, -0.01600000075995922, 0.01600000075995922, 0.9920000471174717, 0.0, 0.0, 0.0, 0.0, 0.0, 1.6670485877400248E9, 0.0, 2022-10-29 15:03:07.740
34.0, -1472.2415367569774, -198.56250834744424, -363.4490875438787, -8768.272114064079, -0.01600000075995922, 0.01600000075995922, 0.9920000471174717, 0.0, 0.0, 0.0, 0.0, 0.0, 1.6670485877400248E9, 0.0, 2022-10-29 15:03:07.740
35.0, -1537.2129487372003, -82.06088482774794, -479.8721731645055, -8800.710136329755, -0.01600000075995922, 0.01600000075995922, 0.9920000471174717, 0.0, 0.0, 0.0, 0.0, 0.0, 1.6670485877556226E9, 0.0, 2022-10-29 15:03:07.755
35.0, -1486.5466540874913, -37.52802610537037, -332.7220695079304, -8943.516346187796, -0.01600000075995922, 0.01600000075995922, 0.9920000471174717, 0.0, 0.0, 0.0, 0.0, 0.0, 1.6670485877556226E9, 0.0, 2022-10-29 15:03:07.755
36.0, -1552.6232065046206, -194.56268534483388, -459.2017461094074, -9110.910528304521, -0.01600000075995922, 0.01600000075995922, 0.9920000471174717, 0.0, 0.0, 0.0, 0.0, 0.0, 1.6670485877564118E9, 0.0, 2022-10-29 15:03:07.756
36.0, -1472.0844609588385, -200.15570572856814, -369.318860524334, -9260.386849733535, -0.01600000075995922, 0.01600000075995922, 0.9920000471174717, 0.0, 0.0, 0.0, 0.0, 0.0, 1.6670485877564118E9, 0.0, 2022-10-29 15:03:07.756
37.0, -1512.9185586250387, -66.28224691469222, -481.68415469303727, -9292.645356801338, -0.01600000075995922, 0.01600000075995922, 0.9920000471174717, 0.0, 0.0, 0.0, 0.0, 0.0, 1.6670485877700708E9, 0.0, 2022-10-29 15:03:07.770
37.0, -1490.3538722423837, -44.8918891181238, -331.10082287713885, -9434.830743266735, -0.01600000075995922, 0.01600000075995922, 0.9920000471174717, 0.0, 0.0, 0.0, 0.0, 0.0, 1.6670485877700708E9, 0.0, 2022-10-29 15:03:07.770
38.0, -1568.3420060183853, -208.50503237964585, -457.3635852811858, -9588.144202050287, -0.01600000075995922, 0.01600000075995922, 0.9920000471174717, 0.0, 0.0, 0.0, 0.0, 0.0, 1.6670485877857108E9, 0.0, 2022-10-29 15:03:07.785
38.0, -1467.880813408643, -191.0359596866183, -354.5219463496469, -9750.814890522975, -0.01600000075995922, 0.01600000075995922, 0.9920000471174717, 0.0, 0.0, 0.0, 0.0, 0.0, 1.6670485877857108E9, 0.0, 2022-10-29 15:03:07.785
39.0, -1508.247423580382, -80.08060780121014, -480.14892576122656, -9792.21745298244, -0.01600000075995922, 0.01600000075995922, 0.9920000471174717, 0.0, 0.0, 0.0, 0.0, 0.0, 1.6670485877863946E9, 0.0, 2022-10-29 15:03:07.786
39.0, -1473.3747264435515, -38.057221949100494, -327.3665327713825, -9931.54555588169, -0.01600000075995922, 0.01600000075995922, 0.9920000471174717, 0.0, 0.0, 0.0, 0.0, 0.0, 1.6670485877863946E9, 0.0, 2022-10-29 15:03:07.786
40.0, -1547.3312480673194, -201.5394687121734, -453.1169288814999, -10092.81752177095, -0.01600000075995922, 0.01600000075995922, 1.008000047877431, 0.0, 0.0, 0.0, 0.0, 0.0, 1.6670485878163247E9, 0.0, 2022-10-29 15:03:07.816
40.0, -1477.866346290335, -206.19751410698518, -357.29882206674665, -10233.407840905245, -0.01600000075995922, 0.01600000075995922, 1.008000047877431, 0.0, 0.0, 0.0, 0.0, 0.0, 1.6670485878163247E9, 0.0, 2022-10-29 15:03:07.816
41.0, -1523.3267002017237, -66.52721036178991, -481.4859399953857, -10285.992704232223, -0.01600000075995922, 0.01600000075995922, 1.008000047877431, 0.0, 0.0, 0.0, 0.0, 0.0, 1.6670485878170385E9, 0.0, 2022-10-29 15:03:07.817
41.0, -1466.4895706251264, -24.242031512781978, -339.6876331754029, -10434.184370026458, -0.01600000075995922, 0.01600000075995922, 1.008000047877431, 0.0, 0.0, 0.0, 0.0, 0.0, 1.6670485878170385E9, 0.0, 2022-10-29 15:03:07.817
42.0, -1543.658666310832, -193.67445910535753, -458.35091886948794, -10573.985570270102, -0.03200000151991844, 0.01600000075995922, 1.008000047877431, 0.0, 0.0, 0.0, 0.0, 0.0, 1.6670485878177843E9, 0.0, 2022-10-29 15:03:07.817
42.0, -1474.8557268260047, -214.47765260888264, -355.6252168365754, -10725.432818975765, -0.03200000151991844, 0.01600000075995922, 1.008000047877431, 0.0, 0.0, 0.0, 0.0, 0.0, 1.6670485878177843E9, 0.0, 2022-10-29 15:03:07.817
43.0, -1521.7222831207328, -68.26252394123003, -496.0734197725542, -10778.623546095565, -0.03200000151991844, 0.01600000075995922, 1.008000047877431, 0.0, 0.0, 0.0, 0.0, 0.0, 1.667048587830023E9, 0.0, 2022-10-29 15:03:07.830
43.0, -1466.4409519257024, -36.92029236257076, -321.6893646386452, -10904.768501651008, -0.03200000151991844, 0.01600000075995922, 1.008000047877431, 0.0, 0.0, 0.0, 0.0, 0.0, 1.667048587830023E9, 0.0, 2022-10-29 15:03:07.830
44.0, -1576.7792203184217, -217.09745252784342, -447.50333904800937, -11068.06001351634, -0.03200000151991844, 0.01600000075995922, 1.008000047877431, 0.0, 0.0, 0.0, 0.0, 0.0, 1.6670485878456595E9, 0.0, 2022-10-29 15:03:07.845
44.0, -1501.6820292081684, -228.6406537410803, -348.3978601722047, -11228.441883216146, -0.03200000151991844, 0.01600000075995922, 1.008000047877431, 0.0, 0.0, 0.0, 0.0, 0.0, 1.6670485878456595E9, 0.0, 2022-10-29 15:03:07.845
45.0, -1520.3347802371718, -61.35118882311508, -498.22199229709804, -11277.391563786194, -0.03200000151991844, 0.01600000075995922, 1.008000047877431, 0.0, 0.0, 0.0, 0.0, 0.0, 1.6670485878463695E9, 0.0, 2022-10-29 15:03:07.846
45.0, -1502.650663296692, -55.316860244609416, -312.28538620006293, -11392.118604776915, -0.03200000151991844, 0.01600000075995922, 1.008000047877431, 0.0, 0.0, 0.0, 0.0, 0.0, 1.6670485878463695E9, 0.0, 2022-10-29 15:03:07.846
46.0, -1531.1823600586504, -172.90679465141147, -473.5236929897219, -11568.211794190574, -0.03200000151991844, 0.01600000075995922, 1.008000047877431, 0.0, 0.0, 0.0, 0.0, 0.0, 1.6670485878600118E9, 0.0, 2022-10-29 15:03:07.860
46.0, -1510.4446148043498, -240.57093459973112, -341.68286980176345, -11712.957142175641, -0.03200000151991844, 0.01600000075995922, 1.008000047877431, 0.0, 0.0, 0.0, 0.0, 0.0, 1.6670485878600118E9, 0.0, 2022-10-29 15:03:07.860
47.0, -1492.702529414557, -44.97042701719329, -502.64816389465705, -11768.507746167481, -0.03200000151991844, 0.01600000075995922, 1.008000047877431, 0.0, 0.0, 0.0, 0.0, 0.0, 1.6670485878758135E9, 0.0, 2022-10-29 15:03:07.875
47.0, -1472.18730820762, -50.23620615480468, -317.93076518317685, -11877.25842702901, -0.03200000151991844, 0.01600000075995922, 1.008000047877431, 0.0, 0.0, 0.0, 0.0, 0.0, 1.6670485878758135E9, 0.0, 2022-10-29 15:03:07.875
48.0, -1562.1992203411646, -203.4524275395088, -460.84730208991095, -12044.450654548127, -0.03200000151991844, 0.01600000075995922, 1.008000047877431, 0.0, 0.0, 0.0, 0.0, 0.0, 1.6670485878764648E9, 0.0, 2022-10-29 15:03:07.876
48.0, -1480.5946033080108, -214.34862606041133, -359.6437393389642, -12197.233047537971, -0.03200000151991844, 0.01600000075995922, 1.008000047877431, 0.0, 0.0, 0.0, 0.0, 0.0, 1.6670485878764648E9, 0.0, 2022-10-29 15:03:07.876
49.0, -1539.073548965156, -67.47153510060161, -481.8524501910433, -12243.246906642802, -0.03200000151991844, 0.01600000075995922, 1.008000047877431, 0.0, 0.0, 0.0, 0.0, 0.0, 1.6670485878899484E9, 0.0, 2022-10-29 15:03:07.889
49.0, -1434.5751343532465, -11.917191208805889, -338.5020848894492, -12382.122481647413, -0.03200000151991844, 0.01600000075995922, 1.008000047877431, 0.0, 0.0, 0.0, 0.0, 0.0, 1.6670485878899484E9, 0.0, 2022-10-29 15:03:07.889
50.0, -1543.234187665861, -219.29464375181124, -451.27128825336695, -12522.821257880423, -0.03200000151991844, 0.01600000075995922, 0.9920000471174717, 0.0, 0.0, 0.0, 0.0, 0.0, 1.6670485879057577E9, 0.0, 2022-10-29 15:03:07.905
50.0, -1497.887900703121, -231.08467836212367, -351.83295828150585, -12691.651561580133, -0.03200000151991844, 0.01600000075995922, 0.9920000471174717, 0.0, 0.0, 0.0, 0.0, 0.0, 1.6670485879057577E9, 0.0, 2022-10-29 15:03:07.905
51.0, -1537.2185585871339, -69.01237388234586, -482.0562747386284, -12739.310976665467, -0.03200000151991844, 0.01600000075995922, 0.9920000471174717, 0.0, 0.0, 0.0, 0.0, 0.0, 1.6670485879064333E9, 0.0, 2022-10-29 15:03:07.906
51.0, -1473.369116593618, -25.96051554242149, -333.11475900327787, -12864.53591683181, -0.03200000151991844, 0.01600000075995922, 0.9920000471174717, 0.0, 0.0, 0.0, 0.0, 0.0, 1.6670485879064333E9, 0.0, 2022-10-29 15:03:07.906
52.0, -1571.3432757328264, -215.54352409625426, -453.43482037773356, -13021.959525666665, -0.03200000151991844, 0.01600000075995922, 0.9920000471174717, 0.0, 0.0, 0.0, 0.0, 0.0, 1.6670485879200456E9, 0.0, 2022-10-29 15:03:07.920
52.0, -1494.245238146279, -217.52380112279207, -353.4542049122974, -13180.370468089823, -0.03200000151991844, 0.01600000075995922, 0.9920000471174717, 0.0, 0.0, 0.0, 0.0, 0.0, 1.6670485879200456E9, 0.0, 2022-10-29 15:03:07.920
53.0, -1545.599674387835, -79.442954858765, -477.031719148159, -13225.651306803338, -0.03200000151991844, 0.01600000075995922, 0.9920000471174717, 0.0, 0.0, 0.0, 0.0, 0.0, 1.6670485879357853E9, 0.0, 2022-10-29 15:03:07.935
53.0, -1443.4910558476113, -17.17175064655021, -340.4917116658762, -13367.829213468824, -0.03200000151991844, 0.01600000075995922, 0.9920000471174717, 0.0, 0.0, 0.0, 0.0, 0.0, 1.6670485879357853E9, 0.0, 2022-10-29 15:03:07.935
54.0, -1535.6945493551902, -204.21162723051384, -463.90093040373176, -13502.473091673572, -0.03200000151991844, 0.01600000075995922, 0.9920000471174717, 0.0, 0.0, 0.0, 0.0, 0.0, 1.6670485879364502E9, 0.0, 2022-10-29 15:03:07.936
54.0, -1505.1208672174253, -225.3626314299181, -346.61579784331843, -13651.51184480777, -0.03200000151991844, 0.01600000075995922, 0.9920000471174717, 0.0, 0.0, 0.0, 0.0, 0.0, 1.6670485879364502E9, 0.0, 2022-10-29 15:03:07.936
55.0, -1557.4588971473277, -92.28951120655984, -478.38369298214093, -13724.475422993302, -0.03200000151991844, 0.01600000075995922, 0.9920000471174717, 0.0, 0.0, 0.0, 0.0, 0.0, 1.6670485879500177E9, 0.0, 2022-10-29 15:03:07.950
55.0, -1459.1649765619077, -5.787495181430131, -341.19668280752376, -13846.44291029824, -0.03200000151991844, 0.01600000075995922, 0.9920000471174717, 0.0, 0.0, 0.0, 0.0, 0.0, 1.6670485879500177E9, 0.0, 2022-10-29 15:03:07.950
56.0, -1561.2081468529068, -212.20005353586748, -451.43397390143946, -14003.48878923757, -0.03200000151991844, 0.01600000075995922, 0.9920000471174717, 0.0, 0.0, 0.0, 0.0, 0.0, 1.6670485879664373E9, 0.0, 2022-10-29 15:03:07.966
56.0, -1485.658427848015, -211.9382605389692, -363.0620078984648, -14164.895391525235, -0.03200000151991844, 0.01600000075995922, 0.9920000471174717, 0.0, 0.0, 0.0, 0.0, 0.0, 1.6670485879664373E9, 0.0, 2022-10-29 15:03:07.966
57.0, -1528.1941799940541, -53.40764131722972, -493.28532435558736, -14209.323533048853, -0.03200000151991844, 0.01600000075995922, 0.9920000471174717, 0.0, 0.0, 0.0, 0.0, 0.0, 1.667048587967134E9, 0.0, 2022-10-29 15:03:07.967
57.0, -1435.6447457405739, -24.021377415396273, -335.73455892223865, -14322.5882731569, -0.03200000151991844, 0.01600000075995922, 0.9920000471174717, 0.0, 0.0, 0.0, 0.0, 0.0, 1.667048587967134E9, 0.0, 2022-10-29 15:03:07.967
58.0, -1567.622075276915, -221.9181835707277, -444.7002840312198, -14495.928896203171, -0.03200000151991844, 0.01600000075995922, 0.9920000471174717, 0.0, 0.0, 0.0, 0.0, 0.0, 1.6670485879800482E9, 0.0, 2022-10-29 15:03:07.980
58.0, -1489.7162192999385, -223.1654402059503, -359.8550436864607, -14661.03799944697, -0.03200000151991844, 0.01600000075995922, 0.9920000471174717, 0.0, 0.0, 0.0, 0.0, 0.0, 1.6670485879800482E9, 0.0, 2022-10-29 15:03:07.980
59.0, -1502.7815597951412, -47.15452859131619, -511.2574135926552, -14712.369996288791, -0.03200000151991844, 0.01600000075995922, 0.9920000471174717, 0.0, 0.0, 0.0, 0.0, 0.0, 1.6670485879957297E9, 0.0, 2022-10-29 15:03:07.995
59.0, -1430.0909943063743, -30.861654434353113, -314.55363552318886, -14797.391011931468, -0.03200000151991844, 0.01600000075995922, 0.9920000471174717, 0.0, 0.0, 0.0, 0.0, 0.0, 1.6670485879957297E9, 0.0, 2022-10-29 15:03:07.995
60.0, -1594.167885162402, -236.1073640026152, -435.25142679316923, -14987.29565188149, -0.03200000151991844, 0.01600000075995922, 0.9920000471174717, 0.0, 0.0, 0.0, 0.0, 0.0, 1.6670485879964292E9, 0.0, 2022-10-29 15:03:07.996
60.0, -1516.7893550791778, -220.3249861896038, -355.3578139897436, -15166.055389963556, -0.03200000151991844, 0.01600000075995922, 0.9920000471174717, 0.0, 0.0, 0.0, 0.0, 0.0, 1.6670485879964292E9, 0.0, 2022-10-29 15:03:07.996
61.0, -1501.276250062976, -42.35810689814389, -503.51395073439926, -15210.40873348806, -0.03200000151991844, 0.01600000075995922, 0.9920000471174717, 0.0, 0.0, 0.0, 0.0, 0.0, 1.6670485880101013E9, 0.0, 2022-10-29 15:03:08.010
61.0, -1441.2714252239093, -19.849519014824182, -329.4814461963251, -15302.812311643269, -0.03200000151991844, 0.01600000075995922, 0.9920000471174717, 0.0, 0.0, 0.0, 0.0, 0.0, 1.6670485880101013E9, 0.0, 2022-10-29 15:03:08.010
62.0, -1571.9958882750943, -227.54112315410748, -438.77628250140697, -15491.490264407825, -0.01600000075995922, 0.01600000075995922, 0.9920000471174717, 0.0, 0.0, 0.0, 0.0, 0.0, 1.6670485880257194E9, 0.0, 2022-10-29 15:03:08.025
62.0, -1506.6411365494132, -228.5901650916785, -347.52833343250677, -15646.471718571614, -0.01600000075995922, 0.01600000075995922, 0.9920000471174717, 0.0, 0.0, 0.0, 0.0, 0.0, 1.6670485880257194E9, 0.0, 2022-10-29 15:03:08.025
63.0, -1534.950309264008, -58.89594450220466, -492.94312350964174, -15695.35408094246, -0.01600000075995922, 0.01600000075995922, 0.9920000471174717, 0.0, 0.0, 0.0, 0.0, 0.0, 1.6670485880263855E9, 0.0, 2022-10-29 15:03:08.026
63.0, -1442.1652613133192, -12.197683705482632, -337.75223494833335, -15805.323969189543, -0.01600000075995922, 0.01600000075995922, 0.9920000471174717, 0.0, 0.0, 0.0, 0.0, 0.0, 1.6670485880263855E9, 0.0, 2022-10-29 15:03:08.026
64.0, -1566.09058624506, -218.06795656634495, -446.24299276294187, -15966.076088984963, -0.01600000075995922, 0.01600000075995922, 0.9920000471174717, 0.0, 0.0, 0.0, 0.0, 0.0, 1.6670485880399961E9, 0.0, 2022-10-29 15:03:08.039
64.0, -1508.5634451266378, -235.58003810886294, -344.77015721518546, -16146.099913252052, -0.01600000075995922, 0.01600000075995922, 0.9920000471174717, 0.0, 0.0, 0.0, 0.0, 0.0, 1.6670485880399961E9, 0.0, 2022-10-29 15:03:08.039
65.0, -1541.813025682699, -72.19502874463797, -480.2330735102296, -16183.627939357422, -0.01600000075995922, 0.01600000075995922, 0.9920000471174717, 0.0, 0.0, 0.0, 0.0, 0.0, 1.6670485880557408E9, 0.0, 2022-10-29 15:03:08.055
65.0, -1435.197827695869, 2.137352824676782, -335.3418694268912, -16299.432071535382, -0.01600000075995922, 0.01600000075995922, 0.9920000471174717, 0.0, 0.0, 0.0, 0.0, 0.0, 1.6670485880557408E9, 0.0, 2022-10-29 15:03:08.055
