%OpenBCI Raw EEG Data
%Number of channels = 4
%Sample Rate = 200 Hz
%Board = OpenBCI_GUI$BoardGanglionBLE
Sample Index, EXG Channel 0, EXG Channel 1, EXG Channel 2, EXG Channel 3, Accel Channel 0, Accel Channel 1, Accel Channel 2, Other, Other, Other, Other, Other, Timestamp, Other, Timestamp (Formatted)
0.0, -487.1313189784996, 68.6813927362673, -398.4788604788482, -120.28266237489879, 0.0, 0.0, 0.0, 0.0, 0.0, 0.0, 0.0, 0.0, 1.6670485264804163E9, 0.0, 2022-10-29 15:02:06.480
1.0, -490.4747895388864, -93.96311643673107, -286.812927601859, -356.61255042487755, 0.0, 0.03200000151991844, 0.0, 0.0, 0.0, 0.0, 0.0, 0.0, 1.6670485264939356E9, 0.0, 2022-10-29 15:02:06.493
1.0, -397.62242338899523, -312.8800302930176, -81.6887647821568, -474.18752523185685, 0.0, 0.03200000151991844, 0.0, 0.0, 0.0, 0.0, 0.0, 0.0, 1.6670485264939356E9, 0.0, 2022-10-29 15:02:06.493
2.0, -428.35131137492135, -145.6204845746979, 63.335205749608576, -599.9379213419743, -0.01600000075995922, 0.03200000151991844, 0.0, 0.0, 0.0, 0.0, 0.0, 0.0, 1.6670485265105684E9, 0.0, 2022-10-29 15:02:06.510
2.0, -482.17782148718834, 58.162924110889435, 89.49580593965948, -605.8488332219422, -0.01600000075995922, 0.03200000151991844, 0.0, 0.0, 0.0, 0.0, 0.0, 0.0, 1.6670485265105684E9, 0.0, 2022-10-29 15:02:06.510
3.0, -517.9125655638054, -88.57205065060407, 205.9114117603749, -360.9115654239431, -0.01600000075995922, 0.03200000151991844, 0.0, 0.0, 0.0, 0.0, 0.0, 0.0, 1.6670485265112815E9, 0.0, 2022-10-29 15:02:06.511
3.0, -377.65696747554466, -320.7282103500329, 412.9279639576562, -467.8839238565415, -0.01600000075995922, 0.03200000151991844, 0.0, 0.0, 0.0, 0.0, 0.0, 0.0, 1.6670485265112815E9, 0.0, 2022-10-29 15:02:06.511
4.0, -431.1992451911792, -145.4577989266254, 552.6076174527407, -599.4685638975352, -0.01600000075995922, 0.03200000151991844, 0.0, 0.0, 0.0, 0.0, 0.0, 0.0, 1.6670485265236933E9, 0.0, 2022-10-29 15:02:06.523
4.0, -502.0796991013922, 57.31583677092567, 576.3298028716817, -608.0535042458214, -0.01600000075995922, 0.03200000151991844, 0.0, 0.0, 0.0, 0.0, 0.0, 0.0, 1.6670485265236933E9, 0.0, 2022-10-29 15:02:06.523
5.0, -504.951942267362, -95.31696022069082, 697.4464629366994, -849.1966435387731, -0.01600000075995922, 0.03200000151991844, 0.0, 0.0, 0.0, 0.0, 0.0, 0.0, 1.6670485265393934E9, 0.0, 2022-10-29 15:02:06.539
5.0, -393.50479353778064, -317.8615770339966, 909.5268396739848, -946.5537191852927, -0.01600000075995922, 0.03200000151991844, 0.0, 0.0, 0.0, 0.0, 0.0, 0.0, 1.6670485265393934E9, 0.0, 2022-10-29 15:02:06.539
6.0, -433.1421232181601, -143.24190820287913, 1048.7577051743865, -1085.2329494422302, -0.01600000075995922, 0.03200000151991844, 0.0, 0.0, 0.0, 0.0, 0.0, 0.0, 1.6670485265401273E9, 0.0, 2022-10-29 15:02:06.540
6.0, -489.6763208983466, 74.03131962288171, 1070.4640845172107, -1100.3140960135497, -0.01600000075995922, 0.03200000151991844, 0.0, 0.0, 0.0, 0.0, 0.0, 0.0, 1.6670485265401273E9, 0.0, 2022-10-29 15:02:06.540
7.0, -448.7973444326781, -61.820546267554164, 1175.5664929719642, -1336.1278778696433, -0.01600000075995922, 0.03200000151991844, 0.0, 0.0, 0.0, 0.0, 0.0, 0.0, 1.6670485265537002E9, 0.0, 2022-10-29 15:02:06.553
7.0, -419.07448953483254, 144.85380508378148, 1408.9717792565934, -1427.8564040828496, -0.01600000075995922, 0.03200000151991844, 0.0, 0.0, 0.0, 0.0, 0.0, 0.0, 1.6670485265537002E9, 0.0, 2022-10-29 15:02:06.553
8.0, -444.98264647787437, 339.36600177921355, 1542.64515342284, -1582.5012672506273, -0.01600000075995922, 0.03200000151991844, 0.0, 0.0, 0.0, 0.0, 0.0, 0.0, 1.6670485265694652E9, 0.0, 2022-10-29 15:02:06.569
8.0, -486.94619393069297, 545.1278175413609, 1561.4680698998272, -1579.7412210833281, -0.01600000075995922, 0.03200000151991844, 0.0, 0.0, 0.0, 0.0, 0.0, 0.0, 1.6670485265694652E9, 0.0, 2022-10-29 15:02:06.569
9.0, -499.4935582820326, 398.7406534757465, 1675.695834246464, -1337.6612368514761, -0.01600000075995922, 0.03200000151991844, 0.0, 0.0, 0.0, 0.0, 0.0, 0.0, 1.667048526570048E9, 0.0, 2022-10-29 15:02:06.570
9.0, -389.2506573381834, 171.00131562398747, 1883.52394473413, -1442.348516411148, -0.01600000075995922, 0.03200000151991844, 0.0, 0.0, 0.0, 0.0, 0.0, 0.0, 1.667048526570048E9, 0.0, 2022-10-29 15:02:06.570
10.0, -444.19913743715733, 351.02513989107683, 2026.4086924912408, -1577.0372734153643, -0.01600000075995922, 0.03200000151991844, 1.008000047877431, 0.0, 0.0, 0.0, 0.0, 0.0, 1.6670485265836608E9, 0.0, 2022-10-29 15:02:06.583
10.0, -488.60109966108575, 557.1796451485716, 2052.0270071877167, -1583.0267231944017, -0.01600000075995922, 0.03200000151991844, 1.008000047877431, 0.0, 0.0, 0.0, 0.0, 0.0, 1.6670485265836608E9, 0.0, 2022-10-29 15:02:06.583
11.0, -494.7457552882843, 385.25270428555086, 2169.5832824949175, -1340.9130798629485, -0.01600000075995922, 0.03200000151991844, 1.008000047877431, 0.0, 0.0, 0.0, 0.0, 0.0, 1.6670485265993454E9, 0.0, 2022-10-29 15:02:06.599
11.0, -379.23333530686796, 185.04277000762522, 2371.7678839494474, -1440.6786510809325, -0.01600000075995922, 0.03200000151991844, 1.008000047877431, 0.0, 0.0, 0.0, 0.0, 0.0, 1.6670485265993454E9, 0.0, 2022-10-29 15:02:06.599
12.0, -429.72385465865955, 356.18433187995106, 2515.524028396234, -1586.1906785569154, -0.01600000075995922, 0.03200000151991844, 1.008000047877431, 0.0, 0.0, 0.0, 0.0, 0.0, 1.6670485266001148E9, 0.0, 2022-10-29 15:02:06.600
12.0, -487.81011082045734, 552.2747663566843, 2542.107237281278, -1581.5419829119928, -0.01600000075995922, 0.03200000151991844, 1.008000047877431, 0.0, 0.0, 0.0, 0.0, 0.0, 1.6670485266001148E9, 0.0, 2022-10-29 15:02:06.600
13.0, -496.44179991818964, 395.39344301540405, 2678.6622043633834, -1340.1015215725638, -0.01600000075995922, 0.03200000151991844, 1.008000047877431, 0.0, 0.0, 0.0, 0.0, 0.0, 1.6670485266136727E9, 0.0, 2022-10-29 15:02:06.613
13.0, -384.02975700004026, 167.26889546820894, 2861.201111350674, -1445.0468542291783, -0.01600000075995922, 0.03200000151991844, 1.008000047877431, 0.0, 0.0, 0.0, 0.0, 0.0, 1.6670485266136727E9, 0.0, 2022-10-29 15:02:06.613
14.0, -419.7626311266795, 365.9623003141023, 2997.9636428803205, -1581.9832911067642, -0.01600000075995922, 0.03200000151991844, 1.008000047877431, 0.0, 0.0, 0.0, 0.0, 0.0, 1.6670485266293344E9, 0.0, 2022-10-29 15:02:06.629
14.0, -460.9445394887589, 557.3703800463118, 3038.855708995834, -1580.8426216202788, -0.01600000075995922, 0.03200000151991844, 1.008000047877431, 0.0, 0.0, 0.0, 0.0, 0.0, 1.6670485266293344E9, 0.0, 2022-10-29 15:02:06.629
15.0, -514.541045753751, 388.91780624212697, 3180.5231193173677, -1817.4380425671116, -0.01600000075995922, 0.03200000151991844, 1.008000047877431, 0.0, 0.0, 0.0, 0.0, 0.0, 1.6670485266300426E9, 0.0, 2022-10-29 15:02:06.630
15.0, -394.4023695271462, 177.65646759513766, 3344.6841579223983, -1946.5094698378816, -0.01600000075995922, 0.03200000151991844, 1.008000047877431, 0.0, 0.0, 0.0, 0.0, 0.0, 1.6670485266300426E9, 0.0, 2022-10-29 15:02:06.630
16.0, -415.75158842420205, 340.7086258633062, 3476.2033497141674, -2086.396687780507, -0.01600000075995922, 0.03200000151991844, 1.008000047877431, 0.0, 0.0, 0.0, 0.0, 0.0, 1.667048526643638E9, 0.0, 2022-10-29 15:02:06.643
16.0, -464.259960799478, 565.3644162015989, 3526.321749020368, -2064.881043335423, -0.01600000075995922, 0.03200000151991844, 1.008000047877431, 0.0, 0.0, 0.0, 0.0, 0.0, 1.667048526643638E9, 0.0, 2022-10-29 15:02:06.643
17.0, -513.226470919326, 387.7341279061511, 3670.4986322121695, -1826.8663303554058, -0.01600000075995922, 0.03200000151991844, 1.008000047877431, 0.0, 0.0, 0.0, 0.0, 0.0, 1.6670485266593025E9, 0.0, 2022-10-29 15:02:06.659
17.0, -400.7321502021514, 173.52948799403384, 3837.988181777764, -1954.7821285398677, -0.01600000075995922, 0.03200000151991844, 1.008000047877431, 0.0, 0.0, 0.0, 0.0, 0.0, 1.6670485266593025E9, 0.0, 2022-10-29 15:02:06.659
18.0, -422.7657707910985, 366.46718680812046, 3962.356684854254, -2085.588869390078, -0.01600000075995922, 0.03200000151991844, 1.008000047877431, 0.0, 0.0, 0.0, 0.0, 0.0, 1.6670485266601472E9, 0.0, 2022-10-29 15:02:06.660
18.0, -452.44374688947573, 549.9391988343559, 4013.6718521462753, -2054.6112780570984, -0.01600000075995922, 0.03200000151991844, 1.008000047877431, 0.0, 0.0, 0.0, 0.0, 0.0, 1.6670485266601472E9, 0.0, 2022-10-29 15:02:06.660
19.0, -522.548171558883, 372.43232723744586, 4169.580801499076, -1817.5390198659152, -0.01600000075995922, 0.03200000151991844, 1.008000047877431, 0.0, 0.0, 0.0, 0.0, 0.0, 1.667048526673699E9, 0.0, 2022-10-29 15:02:06.673
19.0, -400.80133835133165, 184.66878001205623, 4326.254560392816, -1950.750516387634, -0.01600000075995922, 0.03200000151991844, 1.008000047877431, 0.0, 0.0, 0.0, 0.0, 0.0, 1.667048526673699E9, 0.0, 2022-10-29 15:02:06.673
20.0, -395.01571311987936, 361.45759081747383, 4451.445841459557, -2082.3351564286277, -0.01600000075995922, 0.03200000151991844, 1.008000047877431, 0.0, 0.0, 0.0, 0.0, 0.0, 1.6670485266893468E9, 0.0, 2022-10-29 15:02:06.689
20.0, -431.09265804244205, 570.585316539742, 4503.415491243824, -2061.429115676321, -0.01600000075995922, 0.03200000151991844, 1.008000047877431, 0.0, 0.0, 0.0, 0.0, 0.0, 1.6670485266893468E9, 0.0, 2022-10-29 15:02:06.689
21.0, -562.6959975832142, 350.60066124610603, 4704.7043866589665, -2286.9806120540015, -0.01600000075995922, 0.03200000151991844, 1.008000047877431, 0.0, 0.0, 0.0, 0.0, 0.0, 1.6670485266901124E9, 0.0, 2022-10-29 15:02:06.690
21.0, -405.0797839006409, 191.8549977769144, 4801.741700859275, -2469.835540587548, -0.01600000075995922, 0.03200000151991844, 1.008000047877431, 0.0, 0.0, 0.0, 0.0, 0.0, 1.6670485266901124E9, 0.0, 2022-10-29 15:02:06.690
22.0, -385.27701363526285, 374.03674431843683, 4926.809565227479, -2587.1188031979837, -0.01600000075995922, 0.03200000151991844, 1.008000047877431, 0.0, 0.0, 0.0, 0.0, 0.0, 1.667048526703899E9, 0.0, 2022-10-29 15:02:06.703
22.0, -422.5432467437349, 559.7377367182635, 4986.326333122328, -2549.338333845604, -0.01600000075995922, 0.03200000151991844, 1.008000047877431, 0.0, 0.0, 0.0, 0.0, 0.0, 1.667048526703899E9, 0.0, 2022-10-29 15:02:06.703
23.0, -561.274835600052, 348.261353823822, 5183.718252783641, -2766.5797725217417, -0.01600000075995922, 0.03200000151991844, 1.008000047877431, 0.0, 0.0, 0.0, 0.0, 0.0, 1.6670485267193067E9, 0.0, 2022-10-29 15:02:06.719
23.0, -423.869041278027, 183.2775372285396, 5303.034151019994, -2952.3892220202833, -0.01600000075995922, 0.03200000151991844, 1.008000047877431, 0.0, 0.0, 0.0, 0.0, 0.0, 1.6670485267193067E9, 0.0, 2022-10-29 15:02:06.719
24.0, -395.10173081886023, 383.4407227570191, 5419.541384389624, -3075.749822058715, -0.01600000075995922, 0.03200000151991844, 1.008000047877431, 0.0, 0.0, 0.0, 0.0, 0.0, 1.6670485267201693E9, 0.0, 2022-10-29 15:02:06.720
24.0, -414.5847396380268, 568.1917805681005, 5484.914835615084, -3035.4972788356245, -0.01600000075995922, 0.03200000151991844, 1.008000047877431, 0.0, 0.0, 0.0, 0.0, 0.0, 1.6670485267201693E9, 0.0, 2022-10-29 15:02:06.720
25.0, -531.2471788558178, 361.45011101756245, 5659.306370548904, -3279.4827420949005, -0.01600000075995922, 0.03200000151991844, 1.008000047877431, 0.0, 0.0, 0.0, 0.0, 0.0, 1.667048526733775E9, 0.0, 2022-10-29 15:02:06.733
25.0, -391.8592375572771, 190.64701009122655, 5794.423346098047, -3436.4052043356933, -0.01600000075995922, 0.03200000151991844, 1.008000047877431, 0.0, 0.0, 0.0, 0.0, 0.0, 1.667048526733775E9, 0.0, 2022-10-29 15:02:06.733
26.0, -403.18552457308397, 360.6666019768454, 5926.312787985429, -3556.4784323130734, -0.01600000075995922, 0.03200000151991844, 1.008000047877431, 0.0, 0.0, 0.0, 0.0, 0.0, 1.6670485267494037E9, 0.0, 2022-10-29 15:02:06.749
26.0, -447.9240777930245, 571.4810225791298, 5982.242991822772, -3531.7913527055643, -0.01600000075995922, 0.03200000151991844, 1.008000047877431, 0.0, 0.0, 0.0, 0.0, 0.0, 1.6670485267494037E9, 0.0, 2022-10-29 15:02:06.749
27.0, -497.088802610524, 398.96317752311006, 6112.320452181622, -3292.041326146107, -0.01600000075995922, 0.03200000151991844, 1.008000047877431, 0.0, 0.0, 0.0, 0.0, 0.0, 1.6670485267500968E9, 0.0, 2022-10-29 15:02:06.750
27.0, -384.14195399871096, 162.91378196980804, 6293.800967481453, -3410.3418415444903, -0.01600000075995922, 0.03200000151991844, 1.008000047877431, 0.0, 0.0, 0.0, 0.0, 0.0, 1.6670485267500968E9, 0.0, 2022-10-29 15:02:06.750
28.0, -429.4227927122265, 354.40787940099835, 6437.961021123454, -3536.0922376546077, -0.01600000075995922, 0.03200000151991844, 1.008000047877431, 0.0, 0.0, 0.0, 0.0, 0.0, 1.667048526763714E9, 0.0, 2022-10-29 15:02:06.763
28.0, -457.578629528638, 570.5441776402295, 6466.264583988115, -3543.4168317178264, -0.01600000075995922, 0.03200000151991844, 1.008000047877431, 0.0, 0.0, 0.0, 0.0, 0.0, 1.667048526763714E9, 0.0, 2022-10-29 15:02:06.763
29.0, -488.05133436759934, 399.567171365954, 6589.546646127477, -3787.9184011709876, -0.01600000075995922, 0.03200000151991844, 1.008000047877431, 0.0, 0.0, 0.0, 0.0, 0.0, 1.6670485267793756E9, 0.0, 2022-10-29 15:02:06.779
29.0, -377.74859502445906, 171.9549901126884, 6788.679489218164, -3890.4327988564037, -0.01600000075995922, 0.03200000151991844, 1.008000047877431, 0.0, 0.0, 0.0, 0.0, 0.0, 1.6670485267793756E9, 0.0, 2022-10-29 15:02:06.779
30.0, -418.8744048872031, 353.49721376178786, 6935.614548627287, -4029.067150313873, -0.01600000075995922, 0.03200000151991844, 0.9920000471174717, 0.0, 0.0, 0.0, 0.0, 0.0, 1.6670485267800655E9, 0.0, 2022-10-29 15:02:06.780
30.0, -453.2983140293509, 559.2141507244669, 6964.7408894822, -4032.6892434209585, -0.01600000075995922, 0.03200000151991844, 0.9920000471174717, 0.0, 0.0, 0.0, 0.0, 0.0, 1.6670485267800655E9, 0.0, 2022-10-29 15:02:06.780
31.0, -473.6620692880824, 412.04160766815767, 7083.265798877925, -4275.732251891401, -0.01600000075995922, 0.03200000151991844, 0.9920000471174717, 0.0, 0.0, 0.0, 0.0, 0.0, 1.6670485267937503E9, 0.0, 2022-10-29 15:02:06.793
31.0, -367.57793709496036, 172.92549415118992, 7276.347483840305, -4391.972082414199, -0.01600000075995922, 0.03200000151991844, 0.9920000471174717, 0.0, 0.0, 0.0, 0.0, 0.0, 1.6670485267937503E9, 0.0, 2022-10-29 15:02:06.793
32.0, -414.62400858756155, 367.6620848439634, 7418.173839909956, -4525.265856734943, -0.01600000075995922, 0.03200000151991844, 0.9920000471174717, 0.0, 0.0, 0.0, 0.0, 0.0, 1.6670485268094668E9, 0.0, 2022-10-29 15:02:06.809
32.0, -458.3901878190227, 564.627655910328, 7452.936209998094, -4519.334375405218, -0.01600000075995922, 0.03200000151991844, 0.9920000471174717, 0.0, 0.0, 0.0, 0.0, 0.0, 1.6670485268094668E9, 0.0, 2022-10-29 15:02:06.809
33.0, -503.9683485790156, 380.2618077946827, 7589.177025483921, -4749.504648228176, -0.01600000075995922, 0.03200000151991844, 0.9920000471174717, 0.0, 0.0, 0.0, 0.0, 0.0, 1.6670485268101892E9, 0.0, 2022-10-29 15:02:06.810
33.0, -395.2700263168663, 188.02534022228792, 7758.080257232767, -4874.447225947864, -0.01600000075995922, 0.03200000151991844, 0.9920000471174717, 0.0, 0.0, 0.0, 0.0, 0.0, 1.6670485268101892E9, 0.0, 2022-10-29 15:02:06.810
34.0, -388.1791760008782, 378.7976369620301, 7883.656747994944, -5020.673574315384, -0.01600000075995922, 0.03200000151991844, 0.9920000471174717, 0.0, 0.0, 0.0, 0.0, 0.0, 1.667048526823685E9, 0.0, 2022-10-29 15:02:06.823
34.0, -427.6295106834732, 564.8875789572485, 7944.688175371848, -4996.985047996044, -0.01600000075995922, 0.03200000151991844, 0.9920000471174717, 0.0, 0.0, 0.0, 0.0, 0.0, 1.667048526823685E9, 0.0, 2022-10-29 15:02:06.823
35.0, -512.9441084726714, 383.07234261138365, 8107.414962343872, -5226.90474752197, -0.01600000075995922, 0.03200000151991844, 0.9920000471174717, 0.0, 0.0, 0.0, 0.0, 0.0, 1.6670485268393695E9, 0.0, 2022-10-29 15:02:06.839
35.0, -390.9280024683103, 185.1998458057642, 8252.562349574175, -5379.331850016024, -0.01600000075995922, 0.03200000151991844, 0.9920000471174717, 0.0, 0.0, 0.0, 0.0, 0.0, 1.6670485268393695E9, 0.0, 2022-10-29 15:02:06.839
36.0, -375.5944126499817, 381.4099570810795, 8363.310137012042, -5521.178775535431, -0.01600000075995922, 0.03200000151991844, 0.9920000471174717, 0.0, 0.0, 0.0, 0.0, 0.0, 1.667048526840178E9, 0.0, 2022-10-29 15:02:06.840
36.0, -366.4690567580983, 581.6255012089387, 8404.695869921707, -5482.6241468922235, -0.01600000075995922, 0.03200000151991844, 0.9920000471174717, 0.0, 0.0, 0.0, 0.0, 0.0, 1.667048526840178E9, 0.0, 2022-10-29 15:02:06.840
37.0, -581.7489179074764, 800.8528267615475, 8214.078779030126, -5647.626662987284, -0.01600000075995922, 0.03200000151991844, 0.9920000471174717, 0.0, 0.0, 0.0, 0.0, 0.0, 1.6670485268536787E9, 0.0, 2022-10-29 15:02:06.853
37.0, -567.0417613317259, 617.2181290872395, 8332.272707279772, -5886.179921560921, -0.01600000075995922, 0.03200000151991844, 0.9920000471174717, 0.0, 0.0, 0.0, 0.0, 0.0, 1.6670485268536787E9, 0.0, 2022-10-29 15:02:06.853
38.0, -430.1950820530765, 419.4129504808225, 8300.259163659066, -6097.656304455362, -0.01600000075995922, 0.03200000151991844, 0.9920000471174717, 0.0, 0.0, 0.0, 0.0, 0.0, 1.6670485268693635E9, 0.0, 2022-10-29 15:02:06.869
38.0, -225.95166567293927, 182.11816824227571, 8268.335377637297, -6027.559359585866, -0.01600000075995922, 0.03200000151991844, 0.9920000471174717, 0.0, 0.0, 0.0, 0.0, 0.0, 1.6670485268693635E9, 0.0, 2022-10-29 15:02:06.869
39.0, -28.860807958059013, 324.74860280239955, 8229.150575851556, -6083.712087470572, -0.01600000075995922, 0.03200000151991844, 0.9920000471174717, 0.0, 0.0, 0.0, 0.0, 0.0, 1.6670485268701546E9, 0.0, 2022-10-29 15:02:06.870
39.0, -71.1067178575322, 106.94991903286427, 8351.286358654499, -5871.732688032091, -0.01600000075995922, 0.03200000151991844, 0.9920000471174717, 0.0, 0.0, 0.0, 0.0, 0.0, 1.6670485268701546E9, 0.0, 2022-10-29 15:02:06.870
40.0, 65.06303952913731, -73.74895717622712, 8292.121141355485, -6091.736042825505, -0.01600000075995922, 0.03200000151991844, 0.9920000471174717, 0.0, 0.0, 0.0, 0.0, 0.0, 1.6670485268836894E9, 0.0, 2022-10-29 15:02:06.883
40.0, 288.92597107682377, -282.2876486554742, 8260.54890592955, -6014.634265339002, -0.01600000075995922, 0.03200000151991844, 0.9920000471174717, 0.0, 0.0, 0.0, 0.0, 0.0, 1.6670485268836894E9, 0.0, 2022-10-29 15:02:06.883
41.0, 478.08450098568574, -176.94401665357873, 8256.175092931371, -6068.453295651358, -0.01600000075995922, 0.03200000151991844, 0.9920000471174717, 0.0, 0.0, 0.0, 0.0, 0.0, 1.6670485268994098E9, 0.0, 2022-10-29 15:02:06.899
41.0, 424.24116132361814, -397.8617769861594, 8373.19469259493, -5849.25962919835, -0.01600000075995922, 0.03200000151991844, 0.9920000471174717, 0.0, 0.0, 0.0, 0.0, 0.0, 1.6670485268994098E9, 0.0, 2022-10-29 15:02:06.899
42.0, 567.1015997310169, -572.5730733661912, 8287.375208311714, -5605.464900836814, -0.01600000075995922, 0.03200000151991844, 0.9920000471174717, 0.0, 0.0, 0.0, 0.0, 0.0, 1.6670485269001064E9, 0.0, 2022-10-29 15:02:06.900
42.0, 766.7860780651681, -785.999814087525, 8246.69257659372, -5532.981899795588, -0.01600000075995922, 0.03200000151991844, 0.9920000471174717, 0.0, 0.0, 0.0, 0.0, 0.0, 1.6670485269001064E9, 0.0, 2022-10-29 15:02:06.900
43.0, 946.3480246877298, -671.5831847931258, 8252.526820524596, -5578.999498800375, -0.01600000075995922, 0.03200000151991844, 0.9920000471174717, 0.0, 0.0, 0.0, 0.0, 0.0, 1.6670485269137225E9, 0.0, 2022-10-29 15:02:06.913
43.0, 913.1938115805387, -887.4333806857467, 8368.70120279817, -5376.070657254662, -0.01600000075995922, 0.03200000151991844, 0.9920000471174717, 0.0, 0.0, 0.0, 0.0, 0.0, 1.6670485269137225E9, 0.0, 2022-10-29 15:02:06.913
44.0, 1062.2662238143384, -1044.5746270739473, 8297.2092752452, -5609.683507986832, -0.01600000075995922, 0.03200000151991844, 0.9920000471174717, 0.0, 0.0, 0.0, 0.0, 0.0, 1.6670485269294465E9, 0.0, 2022-10-29 15:02:06.929
44.0, 1277.0037994701415, -1268.9555347654969, 8237.793484649155, -5531.639275711495, -0.01600000075995922, 0.03200000151991844, 0.9920000471174717, 0.0, 0.0, 0.0, 0.0, 0.0, 1.6670485269294465E9, 0.0, 2022-10-29 15:02:06.929
45.0, 1441.0788203761913, -1166.2298327325843, 8255.483211439569, -5571.2092871926725, -0.01600000075995922, 0.03200000151991844, 0.9920000471174717, 0.0, 0.0, 0.0, 0.0, 0.0, 1.6670485269301896E9, 0.0, 2022-10-29 15:02:06.930
45.0, 1393.1445226441137, -1382.5811752192676, 8366.066443279386, -5366.683508365881, -0.01600000075995922, 0.03200000151991844, 0.9920000471174717, 0.0, 0.0, 0.0, 0.0, 0.0, 1.6670485269301896E9, 0.0, 2022-10-29 15:02:06.930
46.0, 1537.8711711294018, -1542.9611749690957, 8290.699979372323, -5599.705454905052, -0.01600000075995922, 0.03200000151991844, 0.9920000471174717, 0.0, 0.0, 0.0, 0.0, 0.0, 1.6670485269437559E9, 0.0, 2022-10-29 15:02:06.943
46.0, 1758.1998972189613, -1763.2020134096965, 8244.343919421546, -5530.304131427314, -0.01600000075995922, 0.03200000151991844, 0.9920000471174717, 0.0, 0.0, 0.0, 0.0, 0.0, 1.6670485269437559E9, 0.0, 2022-10-29 15:02:06.943
47.0, 1960.2461223751307, -1642.6706476877443, 8258.499440753832, -5559.54079933092, -0.01600000075995922, 0.03200000151991844, 0.9920000471174717, 0.0, 0.0, 0.0, 0.0, 0.0, 1.6670485269594235E9, 0.0, 2022-10-29 15:02:06.959
47.0, 1893.9489158606157, -1862.6272537317127, 8374.105358234141, -5363.384916604962, -0.01600000075995922, 0.03200000151991844, 0.9920000471174717, 0.0, 0.0, 0.0, 0.0, 0.0, 1.6670485269594235E9, 0.0, 2022-10-29 15:02:06.959
48.0, 2040.1827440280467, -2048.4946716795675, 8286.984388766345, -5120.214751536027, -0.01600000075995922, 0.03200000151991844, 0.9920000471174717, 0.0, 0.0, 0.0, 0.0, 0.0, 1.6670485269601507E9, 0.0, 2022-10-29 15:02:06.960
48.0, 2253.084028805606, -2245.607968794182, 8246.698186443653, -5044.032989438623, -0.01600000075995922, 0.03200000151991844, 0.9920000471174717, 0.0, 0.0, 0.0, 0.0, 0.0, 1.6670485269601507E9, 0.0, 2022-10-29 15:02:06.960
49.0, 2434.6617815042846, -2143.1104006585665, 8265.453784721438, -5086.11995358998, -0.01600000075995922, 0.03200000151991844, 0.9920000471174717, 0.0, 0.0, 0.0, 0.0, 0.0, 1.6670485269736211E9, 0.0, 2022-10-29 15:02:06.973
49.0, 2381.2073914376087, -2363.620511895977, 8367.483865362592, -4884.301862331107, -0.01600000075995922, 0.03200000151991844, 0.9920000471174717, 0.0, 0.0, 0.0, 0.0, 0.0, 1.6670485269736211E9, 0.0, 2022-10-29 15:02:06.973
50.0, 2527.9648055988364, -2521.5134781752713, 8291.687312960625, -5119.844501440413, -0.01600000075995922, 0.03200000151991844, 1.008000047877431, 0.0, 0.0, 0.0, 0.0, 0.0, 1.6670485269894211E9, 0.0, 2022-10-29 15:02:06.989
50.0, 2727.7502612317912, -2742.9211654020473, 8251.917216831818, -5041.572135267779, -0.01600000075995922, 0.03200000151991844, 1.008000047877431, 0.0, 0.0, 0.0, 0.0, 0.0, 1.6670485269894211E9, 0.0, 2022-10-29 15:02:06.989
51.0, 2915.356732659042, -2643.049007035326, 8260.302072532475, -5089.568141349126, -0.01600000075995922, 0.03200000151991844, 1.008000047877431, 0.0, 0.0, 0.0, 0.0, 0.0, 1.667048526990166E9, 0.0, 2022-10-29 15:02:06.990
51.0, 2866.31542454008, -2839.3657054593787, 8354.014615672175, -4887.952004687861, -0.01600000075995922, 0.03200000151991844, 1.008000047877431, 0.0, 0.0, 0.0, 0.0, 0.0, 1.667048526990166E9, 0.0, 2022-10-29 15:02:06.990
52.0, 3001.007921444252, -3038.663104148116, 8279.878578850534, -5112.944386022165, -0.01600000075995922, 0.03200000151991844, 1.008000047877431, 0.0, 0.0, 0.0, 0.0, 0.0, 1.667048527003739E9, 0.0, 2022-10-29 15:02:07.003
52.0, 3197.0123382220045, -3239.3293062206358, 8260.057109085377, -5039.616167590953, -0.01600000075995922, 0.03200000151991844, 1.008000047877431, 0.0, 0.0, 0.0, 0.0, 0.0, 1.667048527003739E9, 0.0, 2022-10-29 15:02:07.003
53.0, 3415.712337880861, -3119.9086907855235, 8258.312445756048, -5099.665871229488, -0.01600000075995922, 0.03200000151991844, 1.008000047877431, 0.0, 0.0, 0.0, 0.0, 0.0, 1.6670485270194397E9, 0.0, 2022-10-29 15:02:07.019
53.0, 3387.6443887134083, -3320.7282287562266, 8350.25227631675, -4902.683470613323, -0.01600000075995922, 0.03200000151991844, 1.008000047877431, 0.0, 0.0, 0.0, 0.0, 0.0, 1.6670485270194397E9, 0.0, 2022-10-29 15:02:07.019
54.0, 3527.0715989614837, -3503.125019545201, 8287.949282954913, -5118.7449708534405, -0.01600000075995922, 0.03200000151991844, 1.008000047877431, 0.0, 0.0, 0.0, 0.0, 0.0, 1.6670485270200932E9, 0.0, 2022-10-29 15:02:07.020
54.0, 3698.6095902291127, -3742.929274654016, 8269.31336147571, -5043.943231839687, -0.01600000075995922, 0.03200000151991844, 1.008000047877431, 0.0, 0.0, 0.0, 0.0, 0.0, 1.6670485270200932E9, 0.0, 2022-10-29 15:02:07.020
55.0, 3890.692721903324, -3621.115123247262, 8248.824319568463, -5113.368864667136, -0.01600000075995922, 0.03200000151991844, 1.008000047877431, 0.0, 0.0, 0.0, 0.0, 0.0, 1.6670485270336635E9, 0.0, 2022-10-29 15:02:07.033
55.0, 3882.468681900762, -3817.2410867735744, 8341.33261492243, -4910.00993462652, -0.01600000075995922, 0.03200000151991844, 1.008000047877431, 0.0, 0.0, 0.0, 0.0, 0.0, 1.6670485270336635E9, 0.0, 2022-10-29 15:02:07.033
56.0, 4011.2670964747667, -4004.825118801091, 8296.184542657342, -5113.295936618, -0.01600000075995922, 0.03200000151991844, 1.008000047877431, 0.0, 0.0, 0.0, 0.0, 0.0, 1.667048527049372E9, 0.0, 2022-10-29 15:02:07.049
56.0, 4156.550990053453, -4249.094814456999, 8296.450075554196, -5037.0580760212615, -0.01600000075995922, 0.03200000151991844, 1.008000047877431, 0.0, 0.0, 0.0, 0.0, 0.0, 1.667048527049372E9, 0.0, 2022-10-29 15:02:07.049
57.0, 4389.787980840076, -4089.780686194543, 8242.013961749151, -5127.243893502746, -0.01600000075995922, 0.03200000151991844, 1.008000047877431, 0.0, 0.0, 0.0, 0.0, 0.0, 1.6670485270500982E9, 0.0, 2022-10-29 15:02:07.050
57.0, 4395.384741123766, -4285.936568920501, 8326.780664194841, -4903.255675306544, -0.01600000075995922, 0.03200000151991844, 1.008000047877431, 0.0, 0.0, 0.0, 0.0, 0.0, 1.6670485270500982E9, 0.0, 2022-10-29 15:02:07.050
58.0, 4509.784540868364, -4481.4155297544785, 8293.267420691904, -5104.615628820844, -0.01600000075995922, 0.03200000151991844, 1.008000047877431, 0.0, 0.0, 0.0, 0.0, 0.0, 1.66704852706371E9, 0.0, 2022-10-29 15:02:07.063
58.0, 4618.933521075174, -4259.856376579497, 8306.547805434559, -5029.267864413559, -0.01600000075995922, 0.03200000151991844, 1.008000047877431, 0.0, 0.0, 0.0, 0.0, 0.0, 1.66704852706371E9, 0.0, 2022-10-29 15:02:07.063
59.0, 4374.392682672478, -4096.925765059888, 8234.668798236176, -5132.5657711396925, -0.01600000075995922, 0.03200000151991844, 1.008000047877431, 0.0, 0.0, 0.0, 0.0, 0.0, 1.6670485270793865E9, 0.0, 2022-10-29 15:02:07.079
59.0, 4405.334744955879, -4275.489158394281, 8320.033884674776, -4898.442424063571, -0.01600000075995922, 0.03200000151991844, 1.008000047877431, 0.0, 0.0, 0.0, 0.0, 0.0, 1.6670485270793865E9, 0.0, 2022-10-29 15:02:07.079
60.0, 4508.245572036598, -4504.597299629822, 8302.609690781217, -5091.604516874999, -0.01600000075995922, 0.03200000151991844, 1.008000047877431, 0.0, 0.0, 0.0, 0.0, 0.0, 1.6670485270802069E9, 0.0, 2022-10-29 15:02:07.080
60.0, 4604.484417596366, -4269.417430816218, 8326.761964695062, -5017.3749825544655, -0.01600000075995922, 0.03200000151991844, 1.008000047877431, 0.0, 0.0, 0.0, 0.0, 0.0, 1.6670485270802069E9, 0.0, 2022-10-29 15:02:07.080
61.0, 4372.700377942529, -4085.9959074393846, 8219.193092219532, -5141.5751901329495, -0.01600000075995922, 0.03200000151991844, 1.008000047877431, 0.0, 0.0, 0.0, 0.0, 0.0, 1.6670485270936809E9, 0.0, 2022-10-29 15:02:07.093
61.0, 4431.680470193736, -4261.440224210732, 8292.00333450688, -4897.312974276952, -0.01600000075995922, 0.03200000151991844, 1.008000047877431, 0.0, 0.0, 0.0, 0.0, 0.0, 1.6670485270936809E9, 0.0, 2022-10-29 15:02:07.093
62.0, 4512.39125113748, -4021.735076450743, 8332.007174382918, -5057.990296073258, -0.01600000075995922, 0.03200000151991844, 1.008000047877431, 0.0, 0.0, 0.0, 0.0, 0.0, 1.6670485271094584E9, 0.0, 2022-10-29 15:02:07.109
62.0, 4578.546341453679, -3795.486088731326, 8361.208313236944, -5019.147695133463, -0.01600000075995922, 0.03200000151991844, 1.008000047877431, 0.0, 0.0, 0.0, 0.0, 0.0, 1.6670485271094584E9, 0.0, 2022-10-29 15:02:07.109
63.0, 4383.364702666178, -3573.248143714387, 8184.769183077384, -5178.585240094457, -0.01600000075995922, 0.03200000151991844, 1.008000047877431, 0.0, 0.0, 0.0, 0.0, 0.0, 1.6670485271101341E9, 0.0, 2022-10-29 15:02:07.110
63.0, 4457.4390311385505, -3760.521764045581, 8292.5250505507, -5391.796936568338, -0.01600000075995922, 0.03200000151991844, 1.008000047877431, 0.0, 0.0, 0.0, 0.0, 0.0, 1.6670485271101341E9, 0.0, 2022-10-29 15:02:07.110
64.0, 4497.384902565274, -3538.7120375735685, 8338.89420015132, -5543.8201298671775, -0.01600000075995922, 0.03200000151991844, 1.008000047877431, 0.0, 0.0, 0.0, 0.0, 0.0, 1.6670485271236944E9, 0.0, 2022-10-29 15:02:07.123
64.0, 4530.67375207087, -3321.423850147985, 8378.67925587995, -5506.357552011032, -0.01600000075995922, 0.03200000151991844, 1.008000047877431, 0.0, 0.0, 0.0, 0.0, 0.0, 1.6670485271236944E9, 0.0, 2022-10-29 15:02:07.123
65.0, 4405.095391358715, -3080.0974557572044, 8164.235262370668, -5685.029402444139, -0.01600000075995922, 0.03200000151991844, 1.008000047877431, 0.0, 0.0, 0.0, 0.0, 0.0, 1.6670485271394613E9, 0.0, 2022-10-29 15:02:07.139
65.0, 4472.486518610269, -3273.5344312153757, 8285.997055178043, -5865.187863109633, -0.01600000075995922, 0.03200000151991844, 1.008000047877431, 0.0, 0.0, 0.0, 0.0, 0.0, 1.6670485271394613E9, 0.0, 2022-10-29 15:02:07.139
66.0, 4501.418384667486, -3057.3008955772966, 8352.539225139655, -6023.9989748280495, -0.01600000075995922, 0.03200000151991844, 1.008000047877431, 0.0, 0.0, 0.0, 0.0, 0.0, 1.6670485271400669E9, 0.0, 2022-10-29 15:02:07.140
66.0, 4529.714467732236, -2821.114993675612, 8382.84363448061, -5992.8830071967095, -0.01600000075995922, 0.03200000151991844, 1.008000047877431, 0.0, 0.0, 0.0, 0.0, 0.0, 1.6670485271400669E9, 0.0, 2022-10-29 15:02:07.140
67.0, 4389.03813089896, -2596.7827046834864, 8155.594223523047, -6183.073749493342, -0.01600000075995922, 0.03200000151991844, 1.008000047877431, 0.0, 0.0, 0.0, 0.0, 0.0, 1.6670485271536918E9, 0.0, 2022-10-29 15:02:07.153
67.0, 4473.767434345093, -2789.322104152292, 8280.620948991738, -6364.2644225466065, -0.01600000075995922, 0.03200000151991844, 1.008000047877431, 0.0, 0.0, 0.0, 0.0, 0.0, 1.6670485271536918E9, 0.0, 2022-10-29 15:02:07.153
68.0, 4500.8330903244205, -2558.772231483832, 8355.331060456578, -6514.051155671943, -0.01600000075995922, 0.03200000151991844, 1.008000047877431, 0.0, 0.0, 0.0, 0.0, 0.0, 1.6670485271695447E9, 0.0, 2022-10-29 15:02:07.169
68.0, 4537.416791690979, -2328.4579725125805, 8381.817031942774, -6486.52175209811, -0.01600000075995922, 0.03200000151991844, 1.008000047877431, 0.0, 0.0, 0.0, 0.0, 0.0, 1.6670485271695447E9, 0.0, 2022-10-29 15:02:07.169
69.0, 4402.92998928437, -2088.3059067078866, 8171.744981481694, -6659.804406695068, -0.01600000075995922, 0.03200000151991844, 1.008000047877431, 0.0, 0.0, 0.0, 0.0, 0.0, 1.6670485271700876E9, 0.0, 2022-10-29 15:02:07.170
69.0, 4469.281424348243, -2296.766060288064, 8290.574692723807, -6852.6934868097305, -0.01600000075995922, 0.03200000151991844, 1.008000047877431, 0.0, 0.0, 0.0, 0.0, 0.0, 1.6670485271700876E9, 0.0, 2022-10-29 15:02:07.170
70.0, 4494.652905647643, -2071.246353060007, 8342.314338660799, -7011.055810533464, -0.01600000075995922, 0.03200000151991844, 1.008000047877431, 0.0, 0.0, 0.0, 0.0, 0.0, 1.6670485271837285E9, 0.0, 2022-10-29 15:02:07.183
70.0, 4553.18233995419, -1843.168554262258, 8373.946412486024, -6976.817026439123, -0.01600000075995922, 0.03200000151991844, 1.008000047877431, 0.0, 0.0, 0.0, 0.0, 0.0, 1.6670485271837285E9, 0.0, 2022-10-29 15:02:07.183
71.0, 4396.820862706751, -1614.8308324175887, 8189.582434320357, -7138.453632574063, -0.01600000075995922, 0.03200000151991844, 1.008000047877431, 0.0, 0.0, 0.0, 0.0, 0.0, 1.6670485271994352E9, 0.0, 2022-10-29 15:02:07.199
71.0, 4419.565064287279, -1820.1045912355185, 8303.019209826365, -7344.581958531868, -0.01600000075995922, 0.03200000151991844, 1.008000047877431, 0.0, 0.0, 0.0, 0.0, 0.0, 1.6670485271994352E9, 0.0, 2022-10-29 15:02:07.199
72.0, 4492.635229621548, -1577.1719098137692, 8326.354315599892, -7514.309838220943, -0.01600000075995922, 0.03200000151991844, 1.008000047877431, 0.0, 0.0, 0.0, 0.0, 0.0, 1.6670485272002027E9, 0.0, 2022-10-29 15:02:07.200
72.0, 4589.681893571746, -1803.733179179486, 8333.239471418317, -7471.495463528205, -0.01600000075995922, 0.03200000151991844, 1.008000047877431, 0.0, 0.0, 0.0, 0.0, 0.0, 1.6670485272002027E9, 0.0, 2022-10-29 15:02:07.200
73.0, 4372.801355241332, -1634.5756342336535, 8228.303488511592, -7587.221057807095, -0.01600000075995922, 0.03200000151991844, 1.008000047877431, 0.0, 0.0, 0.0, 0.0, 0.0, 1.667048527213768E9, 0.0, 2022-10-29 15:02:07.213
73.0, 4400.893613758497, -1843.7276693056338, 8331.507897738833, -7342.562412555795, -0.01600000075995922, 0.03200000151991844, 1.008000047877431, 0.0, 0.0, 0.0, 0.0, 0.0, 1.667048527213768E9, 0.0, 2022-10-29 15:02:07.213
74.0, 4485.172259259969, -2036.4578036721796, 8294.63248417573, -7536.102235262748, -0.01600000075995922, 0.03200000151991844, 1.008000047877431, 0.0, 0.0, 0.0, 0.0, 0.0, 1.66704852722942E9, 0.0, 2022-10-29 15:02:07.229
74.0, 4665.020308229141, -2259.395109980833, 8254.200425754767, -7495.445782844443, -0.01600000075995922, 0.03200000151991844, 1.008000047877431, 0.0, 0.0, 0.0, 0.0, 0.0, 1.66704852722942E9, 0.0, 2022-10-29 15:02:07.229
75.0, 4898.754705709871, -2131.6382575444877, 8261.829821664374, -7532.715755852871, -0.01600000075995922, 0.03200000151991844, 1.008000047877431, 0.0, 0.0, 0.0, 0.0, 0.0, 1.6670485272301145E9, 0.0, 2022-10-29 15:02:07.230
75.0, 4818.866702756379, -2371.3564949543215, 8364.746258595027, -7325.583266756963, -0.01600000075995922, 0.03200000151991844, 1.008000047877431, 0.0, 0.0, 0.0, 0.0, 0.0, 1.6670485272301145E9, 0.0, 2022-10-29 15:02:07.230
76.0, 4951.453635985497, -2549.295324996114, 8289.847282182425, -7555.213124036323, -0.01600000075995922, 0.03200000151991844, 1.008000047877431, 0.0, 0.0, 0.0, 0.0, 0.0, 1.6670485272437017E9, 0.0, 2022-10-29 15:02:07.243
76.0, 5171.610326677095, -2736.000480534043, 8240.095393071882, -7500.416109885555, -0.01600000075995922, 0.03200000151991844, 1.008000047877431, 0.0, 0.0, 0.0, 0.0, 0.0, 1.6670485272437017E9, 0.0, 2022-10-29 15:02:07.243
77.0, 5398.654043137096, -2640.1524545196444, 8274.33791706618, -7530.744828576222, -0.01600000075995922, 0.03200000151991844, 1.008000047877431, 0.0, 0.0, 0.0, 0.0, 0.0, 1.6670485272593677E9, 0.0, 2022-10-29 15:02:07.259
77.0, 5302.796667372808, -2846.7501379218884, 8376.222141609062, -7335.348145541269, -0.01600000075995922, 0.03200000151991844, 1.008000047877431, 0.0, 0.0, 0.0, 0.0, 0.0, 1.6670485272593677E9, 0.0, 2022-10-29 15:02:07.259
78.0, 5440.8588141370565, -3022.261772892438, 8285.245335286949, -7568.25789508177, -0.01600000075995922, 0.03200000151991844, 1.008000047877431, 0.0, 0.0, 0.0, 0.0, 0.0, 1.6670485272600563E9, 0.0, 2022-10-29 15:02:07.260
78.0, 5680.653719495982, -3213.204235080164, 8216.412476602476, -7515.098957111593, -0.01600000075995922, 0.03200000151991844, 1.008000047877431, 0.0, 0.0, 0.0, 0.0, 0.0, 1.6670485272600563E9, 0.0, 2022-10-29 15:02:07.260
79.0, 5879.711764587555, -3120.254631531425, 8278.124565771315, -7516.798741641454, -0.01600000075995922, 0.03200000151991844, 1.008000047877431, 0.0, 0.0, 0.0, 0.0, 0.0, 1.6670485272736864E9, 0.0, 2022-10-29 15:02:07.273
79.0, 5800.381006727461, -3347.3020878913812, 8389.231383604929, -7329.14365151478, -0.01600000075995922, 0.03200000151991844, 1.008000047877431, 0.0, 0.0, 0.0, 0.0, 0.0, 1.6670485272736864E9, 0.0, 2022-10-29 15:02:07.273
80.0, 5920.824484800454, -3518.381941414438, 8287.356508811936, -7092.593109367415, -0.01600000075995922, 0.03200000151991844, 1.008000047877431, 0.0, 0.0, 0.0, 0.0, 0.0, 1.6670485272893653E9, 0.0, 2022-10-29 15:02:07.289
80.0, 5680.50786339771, -3730.4249191521667, 8219.840094911866, -7031.0455757966265, -0.01600000075995922, 0.03200000151991844, 1.008000047877431, 0.0, 0.0, 0.0, 0.0, 0.0, 1.6670485272893653E9, 0.0, 2022-10-29 15:02:07.289
81.0, 5880.927232073154, -3615.7165776612237, 8279.19604710862, -7033.751393414568, -0.01600000075995922, 0.03200000151991844, 1.008000047877431, 0.0, 0.0, 0.0, 0.0, 0.0, 1.6670485272900596E9, 0.0, 2022-10-29 15:02:07.290
81.0, 5788.42454656912, -3831.5667735538445, 8382.247120437678, -6837.778765786439, -0.01600000075995922, 0.03200000151991844, 1.008000047877431, 0.0, 0.0, 0.0, 0.0, 0.0, 1.6670485272900596E9, 0.0, 2022-10-29 15:02:07.290
82.0, 5920.046585609671, -4011.274576274678, 8284.856385691557, -7072.229354108684, -0.01600000075995922, 0.03200000151991844, 1.008000047877431, 0.0, 0.0, 0.0, 0.0, 0.0, 1.6670485273036551E9, 0.0, 2022-10-29 15:02:07.303
82.0, 5689.857613286935, -4209.203171579633, 8211.76752085751, -7019.309769735672, -0.01600000075995922, 0.03200000151991844, 1.008000047877431, 0.0, 0.0, 0.0, 0.0, 0.0, 1.6670485273036551E9, 0.0, 2022-10-29 15:02:07.303
83.0, 5885.875119714532, -4105.075007063337, 8283.023834713269, -7025.224421515595, -0.01600000075995922, 0.03200000151991844, 1.008000047877431, 0.0, 0.0, 0.0, 0.0, 0.0, 1.6670485273193464E9, 0.0, 2022-10-29 15:02:07.319
83.0, 5770.248632784467, -4327.103517682757, 8391.699717575684, -6834.783105921932, -0.01600000075995922, 0.03200000151991844, 1.008000047877431, 0.0, 0.0, 0.0, 0.0, 0.0, 1.6670485273193464E9, 0.0, 2022-10-29 15:02:07.319
84.0, 5926.669948431198, -4504.316807133146, 8283.889621553011, -7078.291731936857, -0.01600000075995922, 0.03200000151991844, 1.008000047877431, 0.0, 0.0, 0.0, 0.0, 0.0, 1.6670485273201194E9, 0.0, 2022-10-29 15:02:07.320
84.0, 5684.184185054153, -4675.669673352968, 8213.448605887592, -7023.2665838887915, -0.01600000075995922, 0.03200000151991844, 1.008000047877431, 0.0, 0.0, 0.0, 0.0, 0.0, 1.6670485273201194E9, 0.0, 2022-10-29 15:02:07.320
85.0, 5874.1542732534, -4591.254521503113, 8279.89914830029, -7023.945375730749, -0.01600000075995922, 0.03200000151991844, 1.008000047877431, 0.0, 0.0, 0.0, 0.0, 0.0, 1.6670485273337028E9, 0.0, 2022-10-29 15:02:07.333
85.0, 5799.756443434861, -4823.642554999795, 8380.799779154826, -6825.964421826415, -0.01600000075995922, 0.03200000151991844, 1.008000047877431, 0.0, 0.0, 0.0, 0.0, 0.0, 1.6670485273337028E9, 0.0, 2022-10-29 15:02:07.333
86.0, 5928.749332806561, -4978.020015320741, 8276.651045188773, -6585.374787726905, -0.01600000075995922, 0.03200000151991844, 1.008000047877431, 0.0, 0.0, 0.0, 0.0, 0.0, 1.667048527349319E9, 0.0, 2022-10-29 15:02:07.349
86.0, 5686.14763253089, -5175.914951526094, 8215.010014119092, -6529.025715094525, -0.01600000075995922, 0.03200000151991844, 1.008000047877431, 0.0, 0.0, 0.0, 0.0, 0.0, 1.667048527349319E9, 0.0, 2022-10-29 15:02:07.349
87.0, 5876.633826924022, -5086.9894803296775, 8279.332553457003, -6536.54478395544, -0.01600000075995922, 0.03200000151991844, 1.008000047877431, 0.0, 0.0, 0.0, 0.0, 0.0, 1.667048527350056E9, 0.0, 2022-10-29 15:02:07.350
87.0, 5777.4928189986385, -5325.050942059141, 8400.529621371068, -6329.7526257555, -0.01600000075995922, 0.03200000151991844, 1.008000047877431, 0.0, 0.0, 0.0, 0.0, 0.0, 1.667048527350056E9, 0.0, 2022-10-29 15:02:07.350
88.0, 5920.895542899612, -5479.491980679333, 8286.922680417076, -6093.404038205743, -0.01600000075995922, 0.03200000151991844, 1.008000047877431, 0.0, 0.0, 0.0, 0.0, 0.0, 1.6670485273636549E9, 0.0, 2022-10-29 15:02:07.363
88.0, 5697.475789496675, -5665.351918827277, 8201.417347730137, -6057.751571928151, -0.01600000075995922, 0.03200000151991844, 1.008000047877431, 0.0, 0.0, 0.0, 0.0, 0.0, 1.6670485273636549E9, 0.0, 2022-10-29 15:02:07.363
89.0, 5902.895404412877, -5568.774612321518, 8274.274338766932, -6043.824184493162, -0.01600000075995922, 0.03200000151991844, 1.008000047877431, 0.0, 0.0, 0.0, 0.0, 0.0, 1.667048527379388E9, 0.0, 2022-10-29 15:02:07.379
89.0, 5784.1386212198995, -5798.361460751388, 8404.263911476824, -5846.490233281162, -0.01600000075995922, 0.03200000151991844, 1.008000047877431, 0.0, 0.0, 0.0, 0.0, 0.0, 1.667048527379388E9, 0.0, 2022-10-29 15:02:07.379
90.0, 5917.630610238295, -5979.393188056536, 8290.825266020838, -5608.4886099509895, -0.01600000075995922, 0.03200000151991844, 1.008000047877431, 0.0, 0.0, 0.0, 0.0, 0.0, 1.6670485273800597E9, 0.0, 2022-10-29 15:02:07.380
90.0, 6159.527339372318, -6165.8926490969025, 8211.737601657864, -5559.533319531009, -0.01600000075995922, 0.03200000151991844, 1.008000047877431, 0.0, 0.0, 0.0, 0.0, 0.0, 1.6670485273800597E9, 0.0, 2022-10-29 15:02:07.380
91.0, 6373.803037383594, -6043.551171796396, 8277.548621178139, -5558.130857047625, -0.01600000075995922, 0.03200000151991844, 1.008000047877431, 0.0, 0.0, 0.0, 0.0, 0.0, 1.667048527393758E9, 0.0, 2022-10-29 15:02:07.393
91.0, 6263.045900195837, -5806.467693905346, 8404.740748721175, -5362.132050119806, -0.01600000075995922, 0.03200000151991844, 1.008000047877431, 0.0, 0.0, 0.0, 0.0, 0.0, 1.667048527393758E9, 0.0, 2022-10-29 15:02:07.393
92.0, 6401.324961157516, -5973.198043779936, 8287.719279107638, -5131.26615590509, -0.01600000075995922, 0.03200000151991844, 1.008000047877431, 0.0, 0.0, 0.0, 0.0, 0.0, 1.6670485274094193E9, 0.0, 2022-10-29 15:02:07.409
92.0, 6180.0631300290115, -6159.9592978172, 8198.956493559293, -5077.523793541826, -0.01600000075995922, 0.03200000151991844, 1.008000047877431, 0.0, 0.0, 0.0, 0.0, 0.0, 1.6670485274094193E9, 0.0, 2022-10-29 15:02:07.409
93.0, 6379.218412519433, -6056.1527646970935, 8282.303903971799, -5057.900538474321, -0.01600000075995922, 0.03200000151991844, 1.008000047877431, 0.0, 0.0, 0.0, 0.0, 0.0, 1.66704852741006E9, 0.0, 2022-10-29 15:02:07.410
93.0, 6271.688808993436, -5818.818713509012, 8401.077516714577, -4866.4681493924, -0.01600000075995922, 0.03200000151991844, 1.008000047877431, 0.0, 0.0, 0.0, 0.0, 0.0, 1.66704852741006E9, 0.0, 2022-10-29 15:02:07.410
94.0, 6414.238835704513, -5978.256258470006, 8279.392391856294, -4629.854028945789, -0.01600000075995922, 0.03200000151991844, 1.008000047877431, 0.0, 0.0, 0.0, 0.0, 0.0, 1.6670485274237201E9, 0.0, 2022-10-29 15:02:07.423
94.0, 6657.466969222762, -6152.522506755311, 8218.948128772434, -4568.35885397438, -0.01600000075995922, 0.03200000151991844, 1.008000047877431, 0.0, 0.0, 0.0, 0.0, 0.0, 1.6670485274237201E9, 0.0, 2022-10-29 15:02:07.423
95.0, 6867.389423685614, -6063.279144062661, 8281.770968228113, -4577.919908211101, -0.01600000075995922, 0.03200000151991844, 1.008000047877431, 0.0, 0.0, 0.0, 0.0, 0.0, 1.667048527439506E9, 0.0, 2022-10-29 15:02:07.439
95.0, 6783.204275683034, -6289.126092536841, 8373.493884591386, -4397.939092793502, -0.01600000075995922, 0.03200000151991844, 1.008000047877431, 0.0, 0.0, 0.0, 0.0, 0.0, 1.667048527439506E9, 0.0, 2022-10-29 15:02:07.439
96.0, 6916.943098098505, -6451.813610559329, 8280.579810092226, -4626.734952382743, -0.01600000075995922, 0.03200000151991844, 1.008000047877431, 0.0, 0.0, 0.0, 0.0, 0.0, 1.6670485274400377E9, 0.0, 2022-10-29 15:02:07.440
96.0, 7134.840889216866, -6663.445199301932, 8230.611006784253, -4556.735244912095, -0.01600000075995922, 0.03200000151991844, 1.008000047877431, 0.0, 0.0, 0.0, 0.0, 0.0, 1.6670485274400377E9, 0.0, 2022-10-29 15:02:07.440
97.0, 7346.094748063944, -6545.673879747279, 8288.433599999174, -4570.795398795512, -0.01600000075995922, 0.03200000151991844, 1.008000047877431, 0.0, 0.0, 0.0, 0.0, 0.0, 1.667048527453675E9, 0.0, 2022-10-29 15:02:07.453
97.0, 7260.862428073771, -6783.701682377141, 8382.20224163821, -4380.185787703842, -0.01600000075995922, 0.03200000151991844, 1.008000047877431, 0.0, 0.0, 0.0, 0.0, 0.0, 1.667048527453675E9, 0.0, 2022-10-29 15:02:07.453
98.0, 7396.979826861061, -6951.288469341584, 8278.880025562365, -4140.39649219485, -0.01600000075995922, 0.03200000151991844, 1.008000047877431, 0.0, 0.0, 0.0, 0.0, 0.0, 1.6670485274693725E9, 0.0, 2022-10-29 15:02:07.469
98.0, 7632.716940768063, -7142.814355922397, 8213.772107233759, -4082.5701590799727, -0.01600000075995922, 0.03200000151991844, 1.008000047877431, 0.0, 0.0, 0.0, 0.0, 0.0, 1.6670485274693725E9, 0.0, 2022-10-29 15:02:07.469
99.0, 7833.390622640494, -7033.502690067515, 8286.064373377245, -4084.397100208327, -0.01600000075995922, 0.03200000151991844, 1.008000047877431, 0.0, 0.0, 0.0, 0.0, 0.0, 1.6670485274701464E9, 0.0, 2022-10-29 15:02:07.470
99.0, 7741.800472725648, -6797.604760462418, 8402.010621753521, -3886.42736600386, -0.01600000075995922, 0.03200000151991844, 1.008000047877431, 0.0, 0.0, 0.0, 0.0, 0.0, 1.6670485274701464E9, 0.0, 2022-10-29 15:02:07.470
100.0, 7876.923058124725, -6953.373463566881, 8284.581503044814, -3654.6601558998227, -0.01600000075995922, 0.03200000151991844, 1.008000047877431, 0.0, 0.0, 0.0, 0.0, 0.0, 1.667048527484331E9, 0.0, 2022-10-29 15:02:07.484
100.0, 7649.77836436592, -7127.067507158965, 8203.350876007229, -3593.5726300235838, -0.01600000075995922, 0.03200000151991844, 1.008000047877431, 0.0, 0.0, 0.0, 0.0, 0.0, 1.667048527484331E9, 0.0, 2022-10-29 15:02:07.484
0.0, -1944.0056068175472, -1153.6170201320201, 437.8338277125731, 339.71568242507055, -0.01600000075995922, 0.03200000151991844, 1.008000047877431, 0.0, 0.0, 0.0, 0.0, 0.0, 1.6670485274850783E9, 0.0, 2022-10-29 15:02:07.485
1.0, -2064.6061606886797, -1398.436481081415, 559.3637467226945, 528.1411919426173, -0.01600000075995922, 0.03200000151991844, 1.008000047877431, 0.0, 0.0, 0.0, 0.0, 0.0, 1.6670485274987292E9, 0.0, 2022-10-29 15:02:07.498
1.0, -1927.4041909142397, -1567.2574350312352, 437.2709727692418, 755.6112569975667, -0.01600000075995922, 0.03200000151991844, 1.008000047877431, 0.0, 0.0, 0.0, 0.0, 0.0, 1.6670485274987292E9, 0.0, 2022-10-29 15:02:07.498
2.0, -2145.0420589856803, -1743.6965651907958, 354.6640625479631, 801.9486174485646, -0.01600000075995922, 0.03200000151991844, 1.008000047877431, 0.0, 0.0, 0.0, 0.0, 0.0, 1.6670485275143285E9, 0.0, 2022-10-29 15:02:07.514
2.0, -1951.9940331229009, -1656.5138873737305, 435.4122424912639, 832.3614838882349, -0.01600000075995922, 0.03200000151991844, 1.008000047877431, 0.0, 0.0, 0.0, 0.0, 0.0, 1.6670485275143285E9, 0.0, 2022-10-29 15:02:07.514
3.0, -2078.9935558182187, -1899.0781886498444, 560.9513342538849, 1019.769740617834, -0.01600000075995922, 0.03200000151991844, 1.008000047877431, 0.0, 0.0, 0.0, 0.0, 0.0, 1.6670485275150893E9, 0.0, 2022-10-29 15:02:07.515
3.0, -1935.2841601208784, -2056.4662684351206, 440.33208088297397, 1250.0970892389305, -0.01600000075995922, 0.03200000151991844, 1.008000047877431, 0.0, 0.0, 0.0, 0.0, 0.0, 1.6670485275150893E9, 0.0, 2022-10-29 15:02:07.515
4.0, -2148.1648754486814, -2218.5890615643, 346.77474359143525, 1293.244315027725, -0.01600000075995922, 0.03200000151991844, 1.008000047877431, 0.0, 0.0, 0.0, 0.0, 0.0, 1.6670485275286777E9, 0.0, 2022-10-29 15:02:07.528
4.0, -1935.8339254143648, -2127.849738889374, 443.9223848404363, 1322.0041456869803, -0.01600000075995922, 0.03200000151991844, 1.008000047877431, 0.0, 0.0, 0.0, 0.0, 0.0, 1.6670485275286777E9, 0.0, 2022-10-29 15:02:07.528
5.0, -2073.488423083443, -1908.0109396940097, 571.5333811785094, 1512.2734258826822, -0.01600000075995922, 0.03200000151991844, 1.008000047877431, 0.0, 0.0, 0.0, 0.0, 0.0, 1.667048527544318E9, 0.0, 2022-10-29 15:02:07.544
5.0, -1945.7708395966329, -2046.8865146986209, 444.50019938359037, 1736.6580734741874, -0.01600000075995922, 0.03200000151991844, 1.008000047877431, 0.0, 0.0, 0.0, 0.0, 0.0, 1.667048527544318E9, 0.0, 2022-10-29 15:02:07.544
6.0, -2141.9865607218817, -2208.2875071363524, 339.57730612671, 1778.2794200810604, -0.01600000075995922, 0.03200000151991844, 1.008000047877431, 0.0, 0.0, 0.0, 0.0, 0.0, 1.6670485275450385E9, 0.0, 2022-10-29 15:02:07.545
6.0, -1941.7915860437788, -2142.212824669201, 439.668248640839, 1804.2006666739471, -0.01600000075995922, 0.03200000151991844, 1.008000047877431, 0.0, 0.0, 0.0, 0.0, 0.0, 1.6670485275450385E9, 0.0, 2022-10-29 15:02:07.545
7.0, -2082.06401368184, -1898.8350951527245, 576.845909065567, 2002.6528479726985, -0.01600000075995922, 0.03200000151991844, 1.008000047877431, 0.0, 0.0, 0.0, 0.0, 0.0, 1.6670485275587232E9, 0.0, 2022-10-29 15:02:07.558
7.0, -1957.637542156037, -2054.641197256744, 450.1306187668815, 2225.6163335810415, -0.01600000075995922, 0.03200000151991844, 1.008000047877431, 0.0, 0.0, 0.0, 0.0, 0.0, 1.6670485275587232E9, 0.0, 2022-10-29 15:02:07.558
8.0, -2128.6725168796256, -2229.0308622405864, 332.48084596078843, 2260.4497617683373, -0.01600000075995922, 0.03200000151991844, 1.008000047877431, 0.0, 0.0, 0.0, 0.0, 0.0, 1.6670485275744257E9, 0.0, 2022-10-29 15:02:07.574
8.0, -1933.1935560456477, -2129.94408286456, 442.5124425571412, 2301.5138632818125, -0.01600000075995922, 0.03200000151991844, 1.008000047877431, 0.0, 0.0, 0.0, 0.0, 0.0, 1.6670485275744257E9, 0.0, 2022-10-29 15:02:07.574
9.0, -2084.913817448076, -1892.5165341775864, 577.2404685108922, 2497.7782031064853, -0.01600000075995922, 0.03200000151991844, 1.008000047877431, 0.0, 0.0, 0.0, 0.0, 0.0, 1.667048527575075E9, 0.0, 2022-10-29 15:02:07.575
9.0, -1947.2144409795292, -2058.5400429605506, 443.1987141990103, 2727.3725313362665, -0.01600000075995922, 0.03200000151991844, 1.008000047877431, 0.0, 0.0, 0.0, 0.0, 0.0, 1.667048527575075E9, 0.0, 2022-10-29 15:02:07.575
10.0, -2132.995841228403, -2217.1735094310716, 333.57102679787204, 2755.8481295988895, -0.01600000075995922, 0.03200000151991844, 1.008000047877431, 0.0, 0.0, 0.0, 0.0, 0.0, 1.6670485275886214E9, 0.0, 2022-10-29 15:02:07.588
10.0, -1943.15290962765, -2138.6337404116057, 438.5986372535117, 2803.4009575354867, -0.01600000075995922, 0.03200000151991844, 1.008000047877431, 0.0, 0.0, 0.0, 0.0, 0.0, 1.6670485275886214E9, 0.0, 2022-10-29 15:02:07.588
11.0, -2075.9193580546416, -1909.1011205310933, 572.8853550124913, 2993.6477983314544, -0.01600000075995922, 0.03200000151991844, 1.008000047877431, 0.0, 0.0, 0.0, 0.0, 0.0, 1.6670485276044488E9, 0.0, 2022-10-29 15:02:07.604
11.0, -1963.5989426854067, -2064.6716089379042, 441.4764902694151, 3211.6446967986412, -0.01600000075995922, 0.03200000151991844, 1.008000047877431, 0.0, 0.0, 0.0, 0.0, 0.0, 1.6670485276044488E9, 0.0, 2022-10-29 15:02:07.604
12.0, -2150.2031209245324, -2201.695933464449, 328.4193146089092, 3245.225258500781, -0.01600000075995922, 0.03200000151991844, 1.008000047877431, 0.0, 0.0, 0.0, 0.0, 0.0, 1.6670485276051097E9, 0.0, 2022-10-29 15:02:07.605
12.0, -1907.0740947551094, -2120.75514867343, 443.37635944690555, 3297.662395779509, -0.01600000075995922, 0.03200000151991844, 1.008000047877431, 0.0, 0.0, 0.0, 0.0, 0.0, 1.6670485276051097E9, 0.0, 2022-10-29 15:02:07.605
13.0, -2086.937103324104, -1902.3001124616712, 578.5157743957825, 3477.351499000564, -0.01600000075995922, 0.03200000151991844, 1.008000047877431, 0.0, 0.0, 0.0, 0.0, 0.0, 1.6670485276186314E9, 0.0, 2022-10-29 15:02:07.618
13.0, -1972.5223439796828, -2059.6844523469917, 443.8569365912117, 3694.4358618785627, -0.01600000075995922, 0.03200000151991844, 1.008000047877431, 0.0, 0.0, 0.0, 0.0, 0.0, 1.6670485276186314E9, 0.0, 2022-10-29 15:02:07.618
14.0, -2124.300573831424, -2211.0251139039174, 328.56330075720325, 3725.1217410149984, -0.01600000075995922, 0.03200000151991844, 1.008000047877431, 0.0, 0.0, 0.0, 0.0, 0.0, 1.6670485276343973E9, 0.0, 2022-10-29 15:02:07.634
14.0, -1923.9859223547392, -2137.6725861229934, 439.2007611463778, 3774.0882511348464, -0.01600000075995922, 0.03200000151991844, 1.008000047877431, 0.0, 0.0, 0.0, 0.0, 0.0, 1.6670485276343973E9, 0.0, 2022-10-29 15:02:07.634
15.0, -2076.917911342811, -1908.1025672429241, 578.5400837454945, 3973.479147322476, -0.01600000075995922, 0.03200000151991844, 1.008000047877431, 0.0, 0.0, 0.0, 0.0, 0.0, 1.667048527635109E9, 0.0, 2022-10-29 15:02:07.635
15.0, -1942.50216703536, -2064.349977541715, 443.89994544070214, 4183.240786087234, -0.01600000075995922, 0.03200000151991844, 1.008000047877431, 0.0, 0.0, 0.0, 0.0, 0.0, 1.667048527635109E9, 0.0, 2022-10-29 15:02:07.635
16.0, -2132.670469932258, -2208.74938478088, 326.46334693208337, 4220.81556094205, -0.01600000075995922, 0.03200000151991844, 1.008000047877431, 0.0, 0.0, 0.0, 0.0, 0.0, 1.6670485276486945E9, 0.0, 2022-10-29 15:02:07.648
16.0, -1931.828492561821, -2128.380804683082, 437.66927211452276, 4268.387088378426, -0.01600000075995922, 0.03200000151991844, 1.008000047877431, 0.0, 0.0, 0.0, 0.0, 0.0, 1.6670485276486945E9, 0.0, 2022-10-29 15:02:07.648
17.0, -2092.9845215524547, -1913.4038754301146, 578.762607792858, 4460.963886846788, -0.01600000075995922, 0.03200000151991844, 1.008000047877431, 0.0, 0.0, 0.0, 0.0, 0.0, 1.6670485276643512E9, 0.0, 2022-10-29 15:02:07.664
17.0, -1958.3518630475737, -2060.2790964399464, 444.6423155819066, 4676.417653344106, -0.01600000075995922, 0.03200000151991844, 1.008000047877431, 0.0, 0.0, 0.0, 0.0, 0.0, 1.6670485276643512E9, 0.0, 2022-10-29 15:02:07.664
18.0, -2135.5875918976963, -2204.708422878757, 323.2750822198577, 4702.840046531055, -0.01600000075995922, 0.03200000151991844, 1.008000047877431, 0.0, 0.0, 0.0, 0.0, 0.0, 1.6670485276651044E9, 0.0, 2022-10-29 15:02:07.665
18.0, -1912.3585733924992, -2140.4812509897165, 440.1469558351673, 4759.8697809553705, -0.01600000075995922, 0.03200000151991844, 1.008000047877431, 0.0, 0.0, 0.0, 0.0, 0.0, 1.6670485276651044E9, 0.0, 2022-10-29 15:02:07.665
19.0, -2103.231847431045, -1910.2118708179332, 580.5745893213898, 4958.378060753457, -0.01600000075995922, 0.03200000151991844, 1.008000047877431, 0.0, 0.0, 0.0, 0.0, 0.0, 1.6670485276786542E9, 0.0, 2022-10-29 15:02:07.678
19.0, -1936.398650307674, -2052.9806816764176, 451.68267724849284, 5165.136559853796, -0.01600000075995922, 0.03200000151991844, 1.008000047877431, 0.0, 0.0, 0.0, 0.0, 0.0, 1.6670485276786542E9, 0.0, 2022-10-29 15:02:07.678
20.0, -2128.115271786228, -2212.4369261371903, 330.0910498891026, 5191.716028838884, -0.01600000075995922, 0.03200000151991844, 1.008000047877431, 0.0, 0.0, 0.0, 0.0, 0.0, 1.667048527694417E9, 0.0, 2022-10-29 15:02:07.694
20.0, -1916.281728446018, -2138.0222667688504, 441.85796006489545, 5249.497483154293, -0.01600000075995922, 0.03200000151991844, 1.008000047877431, 0.0, 0.0, 0.0, 0.0, 0.0, 1.667048527694417E9, 0.0, 2022-10-29 15:02:07.694
21.0, -2087.5616666167043, -1902.2589735621586, 580.4493026728742, 5445.286855684593, -0.01600000075995922, 0.03200000151991844, 1.008000047877431, 0.0, 0.0, 0.0, 0.0, 0.0, 1.667048527695192E9, 0.0, 2022-10-29 15:02:07.695
21.0, -1970.4167803046294, -2067.37368665589, 444.4216614845209, 5659.510195096489, -0.01600000075995922, 0.03200000151991844, 1.008000047877431, 0.0, 0.0, 0.0, 0.0, 0.0, 1.667048527695192E9, 0.0, 2022-10-29 15:02:07.695
22.0, -2135.7184883961454, -2213.624344373122, 329.75258894311264, 5687.032118870411, -0.01600000075995922, 0.03200000151991844, 1.008000047877431, 0.0, 0.0, 0.0, 0.0, 0.0, 1.6670485277087111E9, 0.0, 2022-10-29 15:02:07.708
22.0, -1913.9742101733573, -2131.7149254935794, 438.1872482583858, 5747.476381954271, -0.01600000075995922, 0.03200000151991844, 1.008000047877431, 0.0, 0.0, 0.0, 0.0, 0.0, 1.6670485277087111E9, 0.0, 2022-10-29 15:02:07.708
23.0, -2100.03423296893, -1908.671032036189, 581.5432234099135, 5936.174904168583, -0.01600000075995922, 0.03200000151991844, 1.008000047877431, 0.0, 0.0, 0.0, 0.0, 0.0, 1.667048527724389E9, 0.0, 2022-10-29 15:02:07.724
23.0, -1958.1237291502766, -2067.1511626085266, 444.1729581374675, 6138.337066223379, -0.01600000075995922, 0.03200000151991844, 1.008000047877431, 0.0, 0.0, 0.0, 0.0, 0.0, 1.667048527724389E9, 0.0, 2022-10-29 15:02:07.724
24.0, -2131.742974743247, -2203.1507545472123, 332.69776015821844, 6169.965400148649, -0.01600000075995922, 0.03200000151991844, 1.008000047877431, 0.0, 0.0, 0.0, 0.0, 0.0, 1.6670485277250843E9, 0.0, 2022-10-29 15:02:07.725
24.0, -1920.6162724946626, -2134.398303711787, 447.5388680975884, 6237.97548084287, -0.01600000075995922, 0.03200000151991844, 1.008000047877431, 0.0, 0.0, 0.0, 0.0, 0.0, 1.6670485277250843E9, 0.0, 2022-10-29 15:02:07.725
25.0, -2105.5879844031297, -1918.4901393698528, 587.0315265948884, 6430.264307014644, -0.01600000075995922, 0.03200000151991844, 1.008000047877431, 0.0, 0.0, 0.0, 0.0, 0.0, 1.667048527738655E9, 0.0, 2022-10-29 15:02:07.738
25.0, -2005.8710318845697, -2053.0274304258637, 453.7863709735684, 6647.367369392421, -0.01600000075995922, 0.03200000151991844, 1.008000047877431, 0.0, 0.0, 0.0, 0.0, 0.0, 1.667048527738655E9, 0.0, 2022-10-29 15:02:07.738
26.0, -2122.591439551674, -2202.1952101085335, 316.9471714948304, 6656.889154679608, -0.01600000075995922, 0.03200000151991844, 1.008000047877431, 0.0, 0.0, 0.0, 0.0, 0.0, 1.66704852775455E9, 0.0, 2022-10-29 15:02:07.754
26.0, -1901.2847296237014, -2129.5794426188804, 442.95188080193475, 6718.384329651017, -0.01600000075995922, 0.03200000151991844, 1.008000047877431, 0.0, 0.0, 0.0, 0.0, 0.0, 1.66704852775455E9, 0.0, 2022-10-29 15:02:07.754
27.0, -2096.032540016342, -1914.2360031702556, 589.9617382101715, 6922.1022900873795, -0.01600000075995922, 0.03200000151991844, 1.008000047877431, 0.0, 0.0, 0.0, 0.0, 0.0, 1.6670485277551153E9, 0.0, 2022-10-29 15:02:07.755
27.0, -1962.1403817026876, -2053.339712072164, 449.12458567880094, 7123.8642828469165, -0.01600000075995922, 0.03200000151991844, 1.008000047877431, 0.0, 0.0, 0.0, 0.0, 0.0, 1.6670485277551153E9, 0.0, 2022-10-29 15:02:07.755
28.0, -2128.571539580822, -2203.08343634801, 318.32532462850213, 7158.424698337447, -0.01600000075995922, 0.03200000151991844, 1.008000047877431, 0.0, 0.0, 0.0, 0.0, 0.0, 1.6670485277686749E9, 0.0, 2022-10-29 15:02:07.768
28.0, -1915.6609050533734, -2128.7847138782963, 447.0601609032601, 7222.964151872788, -0.01600000075995922, 0.03200000151991844, 1.008000047877431, 0.0, 0.0, 0.0, 0.0, 0.0, 1.6670485277686749E9, 0.0, 2022-10-29 15:02:07.768
29.0, -2105.606683902908, -1921.5456376336515, 587.4616150897928, 7411.752431686036, -0.01600000075995922, 0.03200000151991844, 1.008000047877431, 0.0, 0.0, 0.0, 0.0, 0.0, 1.6670485277843637E9, 0.0, 2022-10-29 15:02:07.784
29.0, -1963.5727633857168, -2072.68434459297, 449.77345832111314, 7618.121981190983, -0.01600000075995922, 0.03200000151991844, 1.008000047877431, 0.0, 0.0, 0.0, 0.0, 0.0, 1.6670485277843637E9, 0.0, 2022-10-29 15:02:07.784
30.0, -2133.2800736250356, -2199.113532545045, 316.18797180382535, 7638.007029255386, -0.01600000075995922, 0.03200000151991844, 1.008000047877431, 0.0, 0.0, 0.0, 0.0, 0.0, 1.6670485277851605E9, 0.0, 2022-10-29 15:02:07.785
30.0, -1900.8733406285755, -2118.816010546405, 444.8517499794252, 7713.298695163336, -0.01600000075995922, 0.03200000151991844, 1.008000047877431, 0.0, 0.0, 0.0, 0.0, 0.0, 1.6670485277851605E9, 0.0, 2022-10-29 15:02:07.785
31.0, -2094.3234057365917, -1910.5559416138567, 587.0520960446447, 7899.6485602054745, -0.01600000075995922, 0.03200000151991844, 1.008000047877431, 0.0, 0.0, 0.0, 0.0, 0.0, 1.667048527798702E9, 0.0, 2022-10-29 15:02:07.798
31.0, -1960.1993736256845, -2059.402089900337, 447.6510650962591, 8112.933184728492, -0.01600000075995922, 0.03200000151991844, 1.008000047877431, 0.0, 0.0, 0.0, 0.0, 0.0, 1.667048527798702E9, 0.0, 2022-10-29 15:02:07.798
32.0, -2131.6681767441332, -2197.7914779107086, 316.98270054440945, 8119.190037354361, -0.01600000075995922, 0.03200000151991844, 1.008000047877431, 0.0, 0.0, 0.0, 0.0, 0.0, 1.667048527814423E9, 0.0, 2022-10-29 15:02:07.814
32.0, -1906.730023959186, -2130.030100563541, 446.8469866057858, 8196.015062244143, -0.01600000075995922, 0.03200000151991844, 1.008000047877431, 0.0, 0.0, 0.0, 0.0, 0.0, 1.667048527814423E9, 0.0, 2022-10-29 15:02:07.814
33.0, -2096.9039367060177, -1919.9187811529264, 590.352557755541, 8391.968990372494, -0.01600000075995922, 0.03200000151991844, 1.008000047877431, 0.0, 0.0, 0.0, 0.0, 0.0, 1.6670485278150883E9, 0.0, 2022-10-29 15:02:07.815
33.0, -1966.587122750003, -2063.888099897187, 451.43771380139515, 8592.003149352502, -0.01600000075995922, 0.03200000151991844, 1.008000047877431, 0.0, 0.0, 0.0, 0.0, 0.0, 1.6670485278150883E9, 0.0, 2022-10-29 15:02:07.815
34.0, -2134.757334107533, -2202.408384406008, 318.5029698763974, 8608.208135860506, -0.01600000075995922, 0.03200000151991844, 1.008000047877431, 0.0, 0.0, 0.0, 0.0, 0.0, 1.6670485278286943E9, 0.0, 2022-10-29 15:02:07.828
34.0, -1905.039589179214, -2130.7014126055874, 440.9734737253748, 8678.40231812885, -0.01600000075995922, 0.03200000151991844, 1.008000047877431, 0.0, 0.0, 0.0, 0.0, 0.0, 1.6670485278286943E9, 0.0, 2022-10-29 15:02:07.828
35.0, -2093.5642060455866, -1911.3899393039756, 588.5405762270093, 8878.735669105314, -0.01600000075995922, 0.03200000151991844, 1.008000047877431, 0.0, 0.0, 0.0, 0.0, 0.0, 1.6670485278443313E9, 0.0, 2022-10-29 15:02:07.844
35.0, -1955.9882462755777, -2070.1580421729013, 445.0929735265672, 9075.400178225245, -0.01600000075995922, 0.03200000151991844, 1.008000047877431, 0.0, 0.0, 0.0, 0.0, 0.0, 1.6670485278443313E9, 0.0, 2022-10-29 15:02:07.844
36.0, -2130.7855603545904, -2203.973532537464, 306.1108113732189, 9096.960701469798, -0.01600000075995922, 0.03200000151991844, 1.008000047877431, 0.0, 0.0, 0.0, 0.0, 0.0, 1.6670485278451605E9, 0.0, 2022-10-29 15:02:07.845
36.0, -1907.86321364576, -2128.1077919863164, 437.3102417187765, 9179.732167289127, -0.01600000075995922, 0.03200000151991844, 1.008000047877431, 0.0, 0.0, 0.0, 0.0, 0.0, 1.6670485278451605E9, 0.0, 2022-10-29 15:02:07.845
37.0, -2086.91466392437, -1907.30783850234, 591.1641160459258, 9365.737961535342, -0.01600000075995922, 0.03200000151991844, 1.008000047877431, 0.0, 0.0, 0.0, 0.0, 0.0, 1.6670485278749912E9, 0.0, 2022-10-29 15:02:07.874
37.0, -1971.9463993865065, -2059.3964800504036, 445.1995606753044, 9570.798546055797, -0.01600000075995922, 0.03200000151991844, 1.008000047877431, 0.0, 0.0, 0.0, 0.0, 0.0, 1.6670485278749912E9, 0.0, 2022-10-29 15:02:07.874
38.0, -2125.097172521986, -2200.1420050328597, 311.3597609610297, 9583.263632608112, -0.01600000075995922, 0.03200000151991844, 1.008000047877431, 0.0, 0.0, 0.0, 0.0, 0.0, 1.6670485278757873E9, 0.0, 2022-10-29 15:02:07.875
38.0, -1904.3626672872342, -2125.723605764564, 445.4613536722027, 9663.974413551856, -0.01600000075995922, 0.03200000151991844, 1.008000047877431, 0.0, 0.0, 0.0, 0.0, 0.0, 1.6670485278757873E9, 0.0, 2022-10-29 15:02:07.875
39.0, -2096.743121007923, -1907.717357547488, 586.7491641482338, 9862.190981153399, -0.01600000075995922, 0.03200000151991844, 1.008000047877431, 0.0, 0.0, 0.0, 0.0, 0.0, 1.6670485278765256E9, 0.0, 2022-10-29 15:02:07.876
39.0, -1946.877849983517, -2060.0341329928488, 453.2496953299269, 10079.20428593224, -0.01600000075995922, 0.03200000151991844, 1.008000047877431, 0.0, 0.0, 0.0, 0.0, 0.0, 1.6670485278765256E9, 0.0, 2022-10-29 15:02:07.876
40.0, -2115.8147408319637, -2193.8832824570127, 311.57854510843754, 10078.095405595377, -0.01600000075995922, 0.03200000151991844, 0.9920000471174717, 0.0, 0.0, 0.0, 0.0, 0.0, 1.6670485278886724E9, 0.0, 2022-10-29 15:02:07.888
40.0, -1891.762944336515, -2124.1995965326205, 442.5835006562993, 10154.905470885336, -0.01600000075995922, 0.03200000151991844, 0.9920000471174717, 0.0, 0.0, 0.0, 0.0, 0.0, 1.6670485278886724E9, 0.0, 2022-10-29 15:02:07.888
41.0, -2092.84988515405, -1925.5585502861068, 589.8663707613014, 10347.198036957067, -0.01600000075995922, 0.03200000151991844, 0.9920000471174717, 0.0, 0.0, 0.0, 0.0, 0.0, 1.6670485279043465E9, 0.0, 2022-10-29 15:02:07.904
41.0, -1969.033017321024, -2048.849962175358, 456.4304802422412, 10556.136897731572, -0.01600000075995922, 0.03200000151991844, 0.9920000471174717, 0.0, 0.0, 0.0, 0.0, 0.0, 1.6670485279043465E9, 0.0, 2022-10-29 15:02:07.904
42.0, -2124.1173187335953, -2185.403059307486, 313.7944358321838, 10568.646863083355, -0.01600000075995922, 0.03200000151991844, 0.9920000471174717, 0.0, 0.0, 0.0, 0.0, 0.0, 1.6670485279050605E9, 0.0, 2022-10-29 15:02:07.905
42.0, -1890.5362571510486, -2120.693440324161, 440.7528196279891, 10640.77457362879, -0.01600000075995922, 0.03200000151991844, 0.9920000471174717, 0.0, 0.0, 0.0, 0.0, 0.0, 1.6670485279050605E9, 0.0, 2022-10-29 15:02:07.905
43.0, -2097.9324091938324, -1921.1361185885035, 592.3926731813699, 10840.13929051673, -0.01600000075995922, 0.03200000151991844, 0.9920000471174717, 0.0, 0.0, 0.0, 0.0, 0.0, 1.6670485279186983E9, 0.0, 2022-10-29 15:02:07.918
43.0, -1960.8725556177087, -2079.979019456543, 455.250541806221, 11047.907562605105, -0.01600000075995922, 0.03200000151991844, 0.9920000471174717, 0.0, 0.0, 0.0, 0.0, 0.0, 1.6670485279186983E9, 0.0, 2022-10-29 15:02:07.918
44.0, -2111.9327246779576, -2186.1790885482915, 310.20974172465503, 11057.492926191539, -0.01600000075995922, 0.03200000151991844, 0.9920000471174717, 0.0, 0.0, 0.0, 0.0, 0.0, 1.6670485279344583E9, 0.0, 2022-10-29 15:02:07.934
44.0, -1879.6194891803898, -2114.7451294446364, 439.63645949121565, 11139.718366617337, -0.01600000075995922, 0.03200000151991844, 0.9920000471174717, 0.0, 0.0, 0.0, 0.0, 0.0, 1.6670485279344583E9, 0.0, 2022-10-29 15:02:07.934
45.0, -2095.523913622368, -1917.3831289829686, 592.3534042318352, 11335.287085050251, -0.01600000075995922, 0.03200000151991844, 0.9920000471174717, 0.0, 0.0, 0.0, 0.0, 0.0, 1.66704852793509E9, 0.0, 2022-10-29 15:02:07.935
45.0, -1969.0629365206696, -2073.4622437837534, 446.3028311622329, 11532.217127067037, -0.01600000075995922, 0.03200000151991844, 0.9920000471174717, 0.0, 0.0, 0.0, 0.0, 0.0, 1.66704852793509E9, 0.0, 2022-10-29 15:02:07.935
46.0, -2120.5232748761773, -2190.2649292498827, 307.33936850866303, 11550.385561051778, -0.01600000075995922, 0.03200000151991844, 0.9920000471174717, 0.0, 0.0, 0.0, 0.0, 0.0, 1.6670485279487736E9, 0.0, 2022-10-29 15:02:07.948
46.0, -1894.7062456016429, -2120.7532787234522, 438.9576676492579, 11629.768677511252, -0.01600000075995922, 0.03200000151991844, 0.9920000471174717, 0.0, 0.0, 0.0, 0.0, 0.0, 1.6670485279487736E9, 0.0, 2022-10-29 15:02:07.948
47.0, -2079.9472303069197, -1912.7400431879796, 598.3914727102965, 11826.41074723145, -0.01600000075995922, 0.03200000151991844, 0.9920000471174717, 0.0, 0.0, 0.0, 0.0, 0.0, 1.6670485279643555E9, 0.0, 2022-10-29 15:02:07.964
47.0, -1965.0126248686574, -2061.541312674992, 454.4763825153932, 12020.65554108005, -0.01600000075995922, 0.03200000151991844, 0.9920000471174717, 0.0, 0.0, 0.0, 0.0, 0.0, 1.6670485279643555E9, 0.0, 2022-10-29 15:02:07.964
48.0, -2122.554040552117, -2196.759265522938, 311.52992640901357, 12043.700804607011, -0.01600000075995922, 0.03200000151991844, 0.9920000471174717, 0.0, 0.0, 0.0, 0.0, 0.0, 1.6670485279651124E9, 0.0, 2022-10-29 15:02:07.965
48.0, -2367.480088650249, -2123.5862529398873, 446.2934814123437, 12122.994163467549, -0.01600000075995922, 0.03200000151991844, 0.9920000471174717, 0.0, 0.0, 0.0, 0.0, 0.0, 1.6670485279651124E9, 0.0, 2022-10-29 15:02:07.965
49.0, -2560.328029865399, -1917.0091389873996, 595.7043545921333, 12320.675925375428, -0.01600000075995922, 0.03200000151991844, 0.9920000471174717, 0.0, 0.0, 0.0, 0.0, 0.0, 1.667048527978686E9, 0.0, 2022-10-29 15:02:07.978
49.0, -2435.7332628415897, -2056.2736635874026, 449.1152359289117, 12524.248029713519, -0.01600000075995922, 0.03200000151991844, 0.9920000471174717, 0.0, 0.0, 0.0, 0.0, 0.0, 1.667048527978686E9, 0.0, 2022-10-29 15:02:07.978
50.0, -2599.10518255597, -2197.8756256597117, 312.2760364501737, 12527.928091269918, -0.01600000075995922, 0.03200000151991844, 0.9920000471174717, 0.0, 0.0, 0.0, 0.0, 0.0, 1.667048527994393E9, 0.0, 2022-10-29 15:02:07.994
50.0, -2369.746468023397, -2121.3890617159195, 444.3468634854071, 12608.332200417295, -0.01600000075995922, 0.03200000151991844, 0.9920000471174717, 0.0, 0.0, 0.0, 0.0, 0.0, 1.667048527994393E9, 0.0, 2022-10-29 15:02:07.994
51.0, -2576.6377335721627, -1914.4678769675083, 596.6075404314324, 12806.814300915692, -0.01600000075995922, 0.03200000151991844, 0.9920000471174717, 0.0, 0.0, 0.0, 0.0, 0.0, 1.6670485279952352E9, 0.0, 2022-10-29 15:02:07.995
51.0, -2450.5844055656344, -2073.116303037852, 448.1073328908533, 13002.323180949315, -0.01600000075995922, 0.03200000151991844, 0.9920000471174717, 0.0, 0.0, 0.0, 0.0, 0.0, 1.6670485279952352E9, 0.0, 2022-10-29 15:02:07.995
52.0, -2601.3865215289406, -2193.8384036575444, 308.1041780496016, 13021.931476416998, -0.01600000075995922, 0.03200000151991844, 0.9920000471174717, 0.0, 0.0, 0.0, 0.0, 0.0, 1.6670485280087132E9, 0.0, 2022-10-29 15:02:08.008
52.0, -2376.1903156470507, -2120.56441377569, 436.26306973118335, 13091.594592891634, -0.01600000075995922, 0.03200000151991844, 0.9920000471174717, 0.0, 0.0, 0.0, 0.0, 0.0, 1.6670485280087132E9, 0.0, 2022-10-29 15:02:08.008
53.0, -2583.9267985858023, -1918.0450912751257, 600.050118340645, 13268.482511045877, -0.01600000075995922, 0.03200000151991844, 0.9920000471174717, 0.0, 0.0, 0.0, 0.0, 0.0, 1.6670485280244217E9, 0.0, 2022-10-29 15:02:08.024
53.0, -2452.046706448309, -2067.4335250551812, 461.26243098499253, 13445.523765098304, -0.01600000075995922, 0.03200000151991844, 0.9920000471174717, 0.0, 0.0, 0.0, 0.0, 0.0, 1.6670485280244217E9, 0.0, 2022-10-29 15:02:08.024
54.0, -2602.310276817996, -2200.1681843325496, 309.1980987866409, 13462.873160992749, -0.01600000075995922, 0.03200000151991844, 0.9920000471174717, 0.0, 0.0, 0.0, 0.0, 0.0, 1.6670485280250607E9, 0.0, 2022-10-29 15:02:08.025
54.0, -2839.105782412458, -2099.892116770614, 441.29136522160843, 13544.1150077302, -0.01600000075995922, 0.03200000151991844, 0.9920000471174717, 0.0, 0.0, 0.0, 0.0, 0.0, 1.6670485280250607E9, 0.0, 2022-10-29 15:02:08.025
55.0, -3067.4790333067067, -1922.407684573438, 592.3964130813256, 13724.301517645363, -0.01600000075995922, 0.03200000151991844, 0.9920000471174717, 0.0, 0.0, 0.0, 0.0, 0.0, 1.6670485280387943E9, 0.0, 2022-10-29 15:02:08.038
55.0, -2932.1357938102446, -2074.4626670219004, 456.2116960948333, 13949.321948229335, -0.01600000075995922, 0.03200000151991844, 0.9920000471174717, 0.0, 0.0, 0.0, 0.0, 0.0, 1.6670485280387943E9, 0.0, 2022-10-29 15:02:08.038
56.0, -3078.2630348289385, -2175.026706880424, 309.23362783621997, 13959.228943211958, -0.01600000075995922, 0.03200000151991844, 0.9920000471174717, 0.0, 0.0, 0.0, 0.0, 0.0, 1.6670485280543764E9, 0.0, 2022-10-29 15:02:08.054
56.0, -2843.9115538555197, -2113.858773155138, 439.692557990551, 14027.702771500684, -0.01600000075995922, 0.03200000151991844, 0.9920000471174717, 0.0, 0.0, 0.0, 0.0, 0.0, 1.6670485280543764E9, 0.0, 2022-10-29 15:02:08.054
57.0, -3068.3728693961166, -1914.4061686182395, 605.259798978921, 14224.52809631871, -0.01600000075995922, 0.03200000151991844, 0.9920000471174717, 0.0, 0.0, 0.0, 0.0, 0.0, 1.667048528055127E9, 0.0, 2022-10-29 15:02:08.055
57.0, -2941.223750702571, -2065.4401583787985, 463.1735198623501, 14437.356453047134, -0.01600000075995922, 0.03200000151991844, 0.9920000471174717, 0.0, 0.0, 0.0, 0.0, 0.0, 1.667048528055127E9, 0.0, 2022-10-29 15:02:08.055
58.0, -3087.5978251183406, -2192.482689923607, 306.206178822089, 14456.751574217342, -0.01600000075995922, 0.03200000151991844, 0.9920000471174717, 0.0, 0.0, 0.0, 0.0, 0.0, 1.6670485280686438E9, 0.0, 2022-10-29 15:02:08.068
58.0, -3330.3023726427928, -2124.5754564781673, 447.14430865226313, 14534.792066592723, -0.01600000075995922, 0.03200000151991844, 0.9920000471174717, 0.0, 0.0, 0.0, 0.0, 0.0, 1.6670485280686438E9, 0.0, 2022-10-29 15:02:08.068
59.0, -3550.5936997327954, -1915.6272459537722, 605.2728886287659, 14724.586379494052, -0.01600000075995922, 0.03200000151991844, 0.9920000471174717, 0.0, 0.0, 0.0, 0.0, 0.0, 1.6670485280844252E9, 0.0, 2022-10-29 15:02:08.084
59.0, -3416.0545387268066, -2064.985760534182, 457.75627477653325, 14926.692443049513, -0.01600000075995922, 0.03200000151991844, 0.9920000471174717, 0.0, 0.0, 0.0, 0.0, 0.0, 1.6670485280844252E9, 0.0, 2022-10-29 15:02:08.084
60.0, -3569.160433062818, -2191.370069686789, 310.3406382231042, 14954.405101721175, -0.01600000075995922, 0.03200000151991844, 0.9920000471174717, 0.0, 0.0, 0.0, 0.0, 0.0, 1.6670485280851629E9, 0.0, 2022-10-29 15:02:08.085
60.0, -3334.9510682877153, -2119.8201736845076, 441.6111266678199, 15033.919114679098, -0.01600000075995922, 0.03200000151991844, 0.9920000471174717, 0.0, 0.0, 0.0, 0.0, 0.0, 1.6670485280851629E9, 0.0, 2022-10-29 15:02:08.085
61.0, -3551.562333821319, -1919.5522709572688, 604.2201067912392, 15225.886309454683, -0.01600000075995922, 0.03200000151991844, 0.9920000471174717, 0.0, 0.0, 0.0, 0.0, 0.0, 1.6670485280986898E9, 0.0, 2022-10-29 15:02:08.098
61.0, -3442.2487980164587, -2072.9311779900454, 454.65776766324416, 15430.483146380633, -0.01600000075995922, 0.03200000151991844, 0.9920000471174717, 0.0, 0.0, 0.0, 0.0, 0.0, 1.6670485280986898E9, 0.0, 2022-10-29 15:02:08.098
62.0, -3588.55181433307, -2175.922412919812, 300.8244627858512, 15442.705139435828, -0.01600000075995922, 0.03200000151991844, 0.9920000471174717, 0.0, 0.0, 0.0, 0.0, 0.0, 1.6670485281143887E9, 0.0, 2022-10-29 15:02:08.114
62.0, -3820.391952486243, -2116.160681577865, 439.7804456395097, 15521.205639505759, -0.01600000075995922, 0.03200000151991844, 0.9920000471174717, 0.0, 0.0, 0.0, 0.0, 0.0, 1.6670485281143887E9, 0.0, 2022-10-29 15:02:08.114
63.0, -4047.878847090993, -1922.4787426725961, 608.1600913945585, 15711.385162102524, -0.01600000075995922, 0.03200000151991844, 0.9920000471174717, 0.0, 0.0, 0.0, 0.0, 0.0, 1.6670485281151233E9, 0.0, 2022-10-29 15:02:08.115
63.0, -3940.5474582626484, -2060.5539790866897, 453.75084192398936, 15926.928686198778, -0.01600000075995922, 0.03200000151991844, 0.9920000471174717, 0.0, 0.0, 0.0, 0.0, 0.0, 1.6670485281151233E9, 0.0, 2022-10-29 15:02:08.115
64.0, -4075.230605416931, -2191.998372879345, 297.75961477216333, 15936.91421908047, -0.01600000075995922, 0.03200000151991844, 0.9920000471174717, 0.0, 0.0, 0.0, 0.0, 0.0, 1.6670485281286585E9, 0.0, 2022-10-29 15:02:08.128
64.0, -4302.003179130144, -2128.728615378961, 440.23484348412603, 16016.117820342071, -0.01600000075995922, 0.03200000151991844, 0.9920000471174717, 0.0, 0.0, 0.0, 0.0, 0.0, 1.6670485281286585E9, 0.0, 2022-10-29 15:02:08.128
65.0, -4526.471974470653, -1915.0531713105738, 614.2168593727984, 16204.842521856073, -0.01600000075995922, 0.03200000151991844, 0.9920000471174717, 0.0, 0.0, 0.0, 0.0, 0.0, 1.6670485281444633E9, 0.0, 2022-10-29 15:02:08.144
65.0, -4407.730150877498, -2058.7083384585567, 460.51071109389886, 16411.930132152513, -0.01600000075995922, 0.03200000151991844, 0.9920000471174717, 0.0, 0.0, 0.0, 0.0, 0.0, 1.6670485281444633E9, 0.0, 2022-10-29 15:02:08.144
66.0, -4566.161662750412, -2188.017249376513, 299.5977756003849, 16427.245022471063, -0.01600000075995922, 0.03200000151991844, 0.9920000471174717, 0.0, 0.0, 0.0, 0.0, 0.0, 1.66704852814511E9, 0.0, 2022-10-29 15:02:08.145
66.0, -4799.733374583069, -2123.0308777964674, 446.373889261391, 16508.580366707407, -0.01600000075995922, 0.03200000151991844, 0.9920000471174717, 0.0, 0.0, 0.0, 0.0, 0.0, 1.66704852814511E9, 0.0, 2022-10-29 15:02:08.145
67.0, -5029.755921357777, -1918.2002971232869, 610.7368824640289, 16703.00467575388, -0.01600000075995922, 0.03200000151991844, 0.9920000471174717, 0.0, 0.0, 0.0, 0.0, 0.0, 1.6670485281587808E9, 0.0, 2022-10-29 15:02:08.158
67.0, -4922.719984625932, -2079.7060067597777, 462.064639525488, 16902.515248740092, -0.01600000075995922, 0.03200000151991844, 0.9920000471174717, 0.0, 0.0, 0.0, 0.0, 0.0, 1.6670485281587808E9, 0.0, 2022-10-29 15:02:08.158
68.0, -5049.093074078672, -2196.123482530471, 297.329526277259, 16913.835925905965, -0.01600000075995922, 0.03200000151991844, 0.9920000471174717, 0.0, 0.0, 0.0, 0.0, 0.0, 1.66704852817437E9, 0.0, 2022-10-29 15:02:08.174
68.0, -5282.72462431062, -2099.445198725909, 448.33546678815037, 17008.58629128337, -0.01600000075995922, 0.03200000151991844, 0.9920000471174717, 0.0, 0.0, 0.0, 0.0, 0.0, 1.66704852817437E9, 0.0, 2022-10-29 15:02:08.174
69.0, -5515.825108748861, -1919.0399046633393, 602.088363816496, 17195.49714131886, -0.01600000075995922, 0.03200000151991844, 0.9920000471174717, 0.0, 0.0, 0.0, 0.0, 0.0, 1.6670485281751747E9, 0.0, 2022-10-29 15:02:08.175
69.0, -5412.196220876649, -2073.963390377816, 458.386447919067, 17408.931361840107, -0.01600000075995922, 0.03200000151991844, 0.9920000471174717, 0.0, 0.0, 0.0, 0.0, 0.0, 1.6670485281751747E9, 0.0, 2022-10-29 15:02:08.175
70.0, -5566.263269501273, -2192.901558718644, 298.5655632126145, 17416.07831065543, -0.01600000075995922, 0.03200000151991844, 0.9920000471174717, 0.0, 0.0, 0.0, 0.0, 0.0, 1.667048528188707E9, 0.0, 2022-10-29 15:02:08.188
70.0, -5779.7367589720525, -2107.7870455770753, 440.9398146257736, 17499.97548636142, -0.01600000075995922, 0.03200000151991844, 0.9920000471174717, 0.0, 0.0, 0.0, 0.0, 0.0, 1.667048528188707E9, 0.0, 2022-10-29 15:02:08.188
71.0, -6015.960059873294, -1911.4422979033552, 608.4031848916784, 17685.2669597161, -0.01600000075995922, 0.03200000151991844, 0.9920000471174717, 0.0, 0.0, 0.0, 0.0, 0.0, 1.6670485282044032E9, 0.0, 2022-10-29 15:02:08.204
71.0, -5908.1088249511085, -2064.3050987422466, 461.847725328058, 17884.915909000672, -0.01600000075995922, 0.03200000151991844, 0.9920000471174717, 0.0, 0.0, 0.0, 0.0, 0.0, 1.6670485282044032E9, 0.0, 2022-10-29 15:02:08.204
72.0, -6018.894011388533, -2193.65140865976, 302.31107301823795, 17907.100995537825, -0.01600000075995922, 0.03200000151991844, 0.9920000471174717, 0.0, 0.0, 0.0, 0.0, 0.0, 1.6670485282051017E9, 0.0, 2022-10-29 15:02:08.205
72.0, -6253.7410291060805, -2108.622913217172, 441.6447857674211, 17985.41450060997, -0.01600000075995922, 0.03200000151991844, 0.9920000471174717, 0.0, 0.0, 0.0, 0.0, 0.0, 1.6670485282051017E9, 0.0, 2022-10-29 15:02:08.205
73.0, -6019.40824763244, -1940.2600970119238, 608.7117266380228, 18173.22292663483, -0.01600000075995922, 0.03200000151991844, 0.9920000471174717, 0.0, 0.0, 0.0, 0.0, 0.0, 1.6670485282187085E9, 0.0, 2022-10-29 15:02:08.218
73.0, -5894.94437710708, -2066.4312318670563, 455.8582755490206, 18386.39161425922, -0.01600000075995922, 0.03200000151991844, 0.9920000471174717, 0.0, 0.0, 0.0, 0.0, 0.0, 1.6670485282187085E9, 0.0, 2022-10-29 15:02:08.218
74.0, -6037.421475769021, -2184.542882317677, 295.1921734525822, 18394.806389159523, -0.01600000075995922, 0.03200000151991844, 0.9920000471174717, 0.0, 0.0, 0.0, 0.0, 0.0, 1.6670485282344053E9, 0.0, 2022-10-29 15:02:08.234
74.0, -6265.458135667257, -2103.4525015284307, 444.87418937915936, 18485.689697982743, -0.01600000075995922, 0.03200000151991844, 0.9920000471174717, 0.0, 0.0, 0.0, 0.0, 0.0, 1.6670485282344053E9, 0.0, 2022-10-29 15:02:08.234
75.0, -6030.3586747027, -1932.1613436578773, 614.4169440204278, 18656.85556920478, -0.01600000075995922, 0.03200000151991844, 0.9920000471174717, 0.0, 0.0, 0.0, 0.0, 0.0, 1.6670485282351644E9, 0.0, 2022-10-29 15:02:08.235
75.0, -5915.304392465856, -2078.9729863684624, 464.01686730235815, 18877.18616524432, -0.01600000075995922, 0.03200000151991844, 0.9920000471174717, 0.0, 0.0, 0.0, 0.0, 0.0, 1.6670485282351644E9, 0.0, 2022-10-29 15:02:08.235
76.0, -6038.876296851784, -2188.280912323389, 290.092819862999, 18885.230690049008, -0.01600000075995922, 0.03200000151991844, 0.9920000471174717, 0.0, 0.0, 0.0, 0.0, 0.0, 1.6670485282487156E9, 0.0, 2022-10-29 15:02:08.248
76.0, -6267.058812848292, -2097.1937789525837, 448.41774458717555, 18976.761001564562, -0.01600000075995922, 0.03200000151991844, 0.9920000471174717, 0.0, 0.0, 0.0, 0.0, 0.0, 1.6670485282487156E9, 0.0, 2022-10-29 15:02:08.248
77.0, -6499.8975042896345, -1934.1752797840163, 614.1944199730642, 19160.90058573289, -0.01600000075995922, 0.03200000151991844, 0.9920000471174717, 0.0, 0.0, 0.0, 0.0, 0.0, 1.6670485282644365E9, 0.0, 2022-10-29 15:02:08.264
77.0, -6390.183799189515, -2075.7061837571673, 465.58949523372576, 19364.300654673018, -0.01600000075995922, 0.03200000151991844, 0.9920000471174717, 0.0, 0.0, 0.0, 0.0, 0.0, 1.6670485282644365E9, 0.0, 2022-10-29 15:02:08.264
78.0, -6530.21874318039, -2185.1562259104103, 298.3037702157162, 19373.16795746796, -0.01600000075995922, 0.03200000151991844, 0.9920000471174717, 0.0, 0.0, 0.0, 0.0, 0.0, 1.6670485282651987E9, 0.0, 2022-10-29 15:02:08.265
78.0, -6755.701051408891, -2101.762066748459, 443.4044086965732, 19470.424055815674, -0.01600000075995922, 0.03200000151991844, 0.9920000471174717, 0.0, 0.0, 0.0, 0.0, 0.0, 1.6670485282651987E9, 0.0, 2022-10-29 15:02:08.265
79.0, -6512.628123738803, -1941.7841062438674, 612.906024438329, 19663.991927772295, -0.01600000075995922, 0.03200000151991844, 0.9920000471174717, 0.0, 0.0, 0.0, 0.0, 0.0, 1.667048528278686E9, 0.0, 2022-10-29 15:02:08.278
79.0, -6380.867708399892, -2087.1035288721323, 460.39290424529463, 19856.026440747082, -0.01600000075995922, 0.03200000151991844, 0.9920000471174717, 0.0, 0.0, 0.0, 0.0, 0.0, 1.667048528278686E9, 0.0, 2022-10-29 15:02:08.278
80.0, -6535.836072913837, -2175.161343278829, 293.00620192848146, 19858.02354732342, -0.01600000075995922, 0.03200000151991844, 0.9920000471174717, 0.0, 0.0, 0.0, 0.0, 0.0, 1.6670485283108954E9, 0.0, 2022-10-29 15:02:08.310
80.0, -6743.7745104501955, -2103.8059220742434, 441.9888565633446, 19958.79141172953, -0.01600000075995922, 0.03200000151991844, 0.9920000471174717, 0.0, 0.0, 0.0, 0.0, 0.0, 1.6670485283108954E9, 0.0, 2022-10-29 15:02:08.310
81.0, -6522.363083323464, -1936.3706010580063, 614.6207685680129, 20145.657382965554, -0.01600000075995922, 0.03200000151991844, 0.9920000471174717, 0.0, 0.0, 0.0, 0.0, 0.0, 1.6670485283114932E9, 0.0, 2022-10-29 15:02:08.311
81.0, -6400.079574472271, -2076.5738405468874, 460.3835544954054, 20348.848017508164, -0.01600000075995922, 0.03200000151991844, 0.9920000471174717, 0.0, 0.0, 0.0, 0.0, 0.0, 1.6670485283114932E9, 0.0, 2022-10-29 15:02:08.311
82.0, -6528.58814679971, -2185.653632604517, 287.88440893916413, 20349.872750096023, -0.01600000075995922, 0.03200000151991844, 0.9920000471174717, 0.0, 0.0, 0.0, 0.0, 0.0, 1.6670485283123236E9, 0.0, 2022-10-29 15:02:08.312
82.0, -6755.368200312834, -2105.8086385005154, 441.7775522158481, 20449.638321314007, -0.01600000075995922, 0.03200000151991844, 0.9920000471174717, 0.0, 0.0, 0.0, 0.0, 0.0, 1.6670485283123236E9, 0.0, 2022-10-29 15:02:08.312
83.0, -6512.321451942436, -1943.0519323288463, 618.0670863771811, 20643.191233670805, -0.01600000075995922, 0.03200000151991844, 0.9920000471174717, 0.0, 0.0, 0.0, 0.0, 0.0, 1.667048528313008E9, 0.0, 2022-10-29 15:02:08.313
83.0, -6411.089839941822, -2081.5796966375783, 459.1886564595625, 20839.754765491933, -0.01600000075995922, 0.03200000151991844, 0.9920000471174717, 0.0, 0.0, 0.0, 0.0, 0.0, 1.667048528313008E9, 0.0, 2022-10-29 15:02:08.313
84.0, -6517.503083331045, -2182.555125491228, 284.18377793300897, 20839.919321089983, -0.01600000075995922, 0.03200000151991844, 0.9920000471174717, 0.0, 0.0, 0.0, 0.0, 0.0, 1.6670485283237543E9, 0.0, 2022-10-29 15:02:08.323
84.0, -6735.255018351134, -2095.3013895750046, 445.6913575194776, 20947.321768017486, -0.01600000075995922, 0.03200000151991844, 0.9920000471174717, 0.0, 0.0, 0.0, 0.0, 0.0, 1.6670485283237543E9, 0.0, 2022-10-29 15:02:08.323
85.0, -6513.136750132777, -1927.402320964262, 614.8077635657974, 21135.025476843584, -0.01600000075995922, 0.03200000151991844, 0.9920000471174717, 0.0, 0.0, 0.0, 0.0, 0.0, 1.6670485283386817E9, 0.0, 2022-10-29 15:02:08.338
85.0, -6403.811994628049, -2084.4388501537032, 459.3438623077236, 21334.292956332676, -0.01600000075995922, 0.03200000151991844, 0.9920000471174717, 0.0, 0.0, 0.0, 0.0, 0.0, 1.6670485283386817E9, 0.0, 2022-10-29 15:02:08.338
86.0, -6528.973356495146, -2180.903959660791, 289.1896340236999, 21335.639320316724, -0.01600000075995922, 0.03200000151991844, 0.9920000471174717, 0.0, 0.0, 0.0, 0.0, 0.0, 1.6670485283544953E9, 0.0, 2022-10-29 15:02:08.354
86.0, -6734.125568564516, -2102.386630041059, 442.1104033119045, 21432.555087768473, -0.01600000075995922, 0.03200000151991844, 0.9920000471174717, 0.0, 0.0, 0.0, 0.0, 0.0, 1.6670485283544953E9, 0.0, 2022-10-29 15:02:08.354
87.0, -6506.083298816346, -1941.7130481447093, 621.8593449322507, 21626.444591121282, -0.01600000075995922, 0.03200000151991844, 0.9920000471174717, 0.0, 0.0, 0.0, 0.0, 0.0, 1.6670485283551965E9, 0.0, 2022-10-29 15:02:08.355
87.0, -6394.0845148433, -2073.681027931161, 458.3733582692221, 21824.541481924243, -0.01600000075995922, 0.03200000151991844, 0.9920000471174717, 0.0, 0.0, 0.0, 0.0, 0.0, 1.6670485283551965E9, 0.0, 2022-10-29 15:02:08.355
88.0, -6521.931124878582, -2180.0493925209157, 287.52350859344006, 21817.044852463063, -0.01600000075995922, 0.03200000151991844, 0.9920000471174717, 0.0, 0.0, 0.0, 0.0, 0.0, 1.6670485283687112E9, 0.0, 2022-10-29 15:02:08.368
88.0, -6740.68161318684, -2112.819080967456, 443.92986464034766, 21922.981258607935, -0.01600000075995922, 0.03200000151991844, 0.9920000471174717, 0.0, 0.0, 0.0, 0.0, 0.0, 1.6670485283687112E9, 0.0, 2022-10-29 15:02:08.368
89.0, -6517.766746277921, -1929.2984502417967, 613.4202606822364, 22117.05775695853, -0.01600000075995922, 0.03200000151991844, 0.9920000471174717, 0.0, 0.0, 0.0, 0.0, 0.0, 1.6670485283843162E9, 0.0, 2022-10-29 15:02:08.384
89.0, -6415.0279545951635, -2078.2979344264604, 460.0843624989502, 22315.169607361313, -0.01600000075995922, 0.03200000151991844, 0.9920000471174717, 0.0, 0.0, 0.0, 0.0, 0.0, 1.6670485283843162E9, 0.0, 2022-10-29 15:02:08.384
90.0, -6522.211617375258, -2171.651447170414, 289.9413539147936, 22314.831146415323, -0.01600000075995922, 0.03200000151991844, 1.008000047877431, 0.0, 0.0, 0.0, 0.0, 0.0, 1.6670485283851247E9, 0.0, 2022-10-29 15:02:08.385
90.0, -6730.366969109047, -2102.8391579356976, 437.5626849657856, 22422.80205813609, -0.01600000075995922, 0.03200000151991844, 1.008000047877431, 0.0, 0.0, 0.0, 0.0, 0.0, 1.6670485283851247E9, 0.0, 2022-10-29 15:02:08.385
91.0, -6517.972440775484, -1935.276680320967, 615.8792449031025, 22617.28994548181, -0.01600000075995922, 0.03200000151991844, 1.008000047877431, 0.0, 0.0, 0.0, 0.0, 0.0, 1.6670485283987372E9, 0.0, 2022-10-29 15:02:08.398
91.0, -6400.704137764871, -2093.259404199198, 462.53960681986064, 22802.77215373423, -0.01600000075995922, 0.03200000151991844, 1.008000047877431, 0.0, 0.0, 0.0, 0.0, 0.0, 1.6670485283987372E9, 0.0, 2022-10-29 15:02:08.398
92.0, -6524.780928644817, -2171.5747792213224, 282.11935315746814, 22801.498717799317, -0.01600000075995922, 0.03200000151991844, 1.008000047877431, 0.0, 0.0, 0.0, 0.0, 0.0, 1.6670485284143653E9, 0.0, 2022-10-29 15:02:08.414
92.0, -6731.799350792076, -2101.1767724053934, 439.40832559391856, 22912.689683381934, -0.01600000075995922, 0.03200000151991844, 1.008000047877431, 0.0, 0.0, 0.0, 0.0, 0.0, 1.6670485284143653E9, 0.0, 2022-10-29 15:02:08.414
93.0, -6495.458243042231, -1939.4223594218493, 620.4774518986233, 23102.282041685656, -0.01600000075995922, 0.03200000151991844, 1.008000047877431, 0.0, 0.0, 0.0, 0.0, 0.0, 1.667048528415203E9, 0.0, 2022-10-29 15:02:08.415
93.0, -6400.797635263763, -2089.4316165945493, 471.1694259676151, 23287.917585836258, -0.01600000075995922, 0.03200000151991844, 1.008000047877431, 0.0, 0.0, 0.0, 0.0, 0.0, 1.667048528415203E9, 0.0, 2022-10-29 15:02:08.415
94.0, -6527.0697474177, -2171.8160027684644, 280.9281950215809, 23277.45895561017, -0.01600000075995922, 0.03200000151991844, 1.008000047877431, 0.0, 0.0, 0.0, 0.0, 0.0, 1.6670485284287593E9, 0.0, 2022-10-29 15:02:08.428
94.0, -6725.729493163992, -2093.5155873461626, 434.8138584983535, 23403.661879614927, -0.01600000075995922, 0.03200000151991844, 1.008000047877431, 0.0, 0.0, 0.0, 0.0, 0.0, 1.6670485284287593E9, 0.0, 2022-10-29 15:02:08.428
95.0, -6505.331578925252, -1931.8584117614664, 619.9220767552033, 23590.19125985494, -0.01600000075995922, 0.03200000151991844, 1.008000047877431, 0.0, 0.0, 0.0, 0.0, 0.0, 1.66704852844439E9, 0.0, 2022-10-29 15:02:08.444
95.0, -6404.376719521359, -2089.3437289455906, 462.7752205170691, 23786.653814377263, -0.01600000075995922, 0.03200000151991844, 1.008000047877431, 0.0, 0.0, 0.0, 0.0, 0.0, 1.66704852844439E9, 0.0, 2022-10-29 15:02:08.444
96.0, -6508.6656997357495, -2168.0667530628853, 279.684678286314, 23783.824580060784, -0.01600000075995922, 0.03200000151991844, 1.008000047877431, 0.0, 0.0, 0.0, 0.0, 0.0, 1.6670485284451847E9, 0.0, 2022-10-29 15:02:08.445
96.0, -6722.165368506219, -2093.4426592970267, 435.1971982438117, 23891.690774582792, -0.01600000075995922, 0.03200000151991844, 1.008000047877431, 0.0, 0.0, 0.0, 0.0, 0.0, 1.6670485284451847E9, 0.0, 2022-10-29 15:02:08.445
97.0, -6519.872309952974, -1940.2638369118795, 627.3738274169154, 24085.14644954074, -0.01600000075995922, 0.03200000151991844, 1.008000047877431, 0.0, 0.0, 0.0, 0.0, 0.0, 1.6670485284587204E9, 0.0, 2022-10-29 15:02:08.458
97.0, -6408.004422478378, -2091.6867762678303, 465.525916934479, 24274.963201841805, -0.01600000075995922, 0.03200000151991844, 1.008000047877431, 0.0, 0.0, 0.0, 0.0, 0.0, 1.6670485284587204E9, 0.0, 2022-10-29 15:02:08.458
98.0, -6513.748223775532, -2182.1044675465673, 279.8211846346967, 24274.935152592137, -0.01600000075995922, 0.03200000151991844, 1.008000047877431, 0.0, 0.0, 0.0, 0.0, 0.0, 1.667048528474341E9, 0.0, 2022-10-29 15:02:08.474
98.0, -6730.905514702667, -2089.5625130929984, 439.559791542124, 24386.174736874178, -0.01600000075995922, 0.03200000151991844, 1.008000047877431, 0.0, 0.0, 0.0, 0.0, 0.0, 1.667048528474341E9, 0.0, 2022-10-29 15:02:08.474
99.0, -6507.175349603407, -1937.8011127910577, 624.002307606861, 24576.907764664385, -0.01600000075995922, 0.03200000151991844, 1.008000047877431, 0.0, 0.0, 0.0, 0.0, 0.0, 1.667048528475067E9, 0.0, 2022-10-29 15:02:08.475
99.0, -6396.597727613524, -2094.620727783069, 462.7752205170691, 24760.662139137276, -0.01600000075995922, 0.03200000151991844, 1.008000047877431, 0.0, 0.0, 0.0, 0.0, 0.0, 1.667048528475067E9, 0.0, 2022-10-29 15:02:08.475
100.0, -6525.869239531923, -2177.5212201508693, 275.6194070344791, 24750.521400407422, -0.01600000075995922, 0.03200000151991844, 0.9920000471174717, 0.0, 0.0, 0.0, 0.0, 0.0, 1.667048528489514E9, 0.0, 2022-10-29 15:02:08.489
100.0, -6713.705714806449, -2097.9305392438546, 434.03782925754786, 24871.843754970003, -0.01600000075995922, 0.03200000151991844, 0.9920000471174717, 0.0, 0.0, 0.0, 0.0, 0.0, 1.667048528489514E9, 0.0, 2022-10-29 15:02:08.489
0.0, -2597.147344929166, -947.1726726279594, 132.9160444252193, -430.2287411526777, -0.01600000075995922, 0.03200000151991844, 0.9920000471174717, 0.0, 0.0, 0.0, 0.0, 0.0, 1.66704852849021E9, 0.0, 2022-10-29 15:02:08.490
1.0, -2474.699280479923, -1111.5768047301099, -22.031750638969243, -236.930141992867, -0.01600000075995922, 0.03200000151991844, 0.9920000471174717, 0.0, 0.0, 0.0, 0.0, 0.0, 1.6670485285037327E9, 0.0, 2022-10-29 15:02:08.503
1.0, -2584.317618131172, -1180.2656772662885, -214.10927246324718, -247.17933782143518, -0.01600000075995922, 0.03200000151991844, 0.9920000471174717, 0.0, 0.0, 0.0, 0.0, 0.0, 1.6670485285037327E9, 0.0, 2022-10-29 15:02:08.503
2.0, -2786.7135239331983, -1100.8358120573685, -44.033582078292966, -127.71571353683248, -0.01600000075995922, 0.03200000151991844, 0.9920000471174717, 0.0, 0.0, 0.0, 0.0, 0.0, 1.667048528519405E9, 0.0, 2022-10-29 15:02:08.519
2.0, -2574.4685915978625, -967.837489833124, 146.96871850872412, 64.96954203024507, -0.01600000075995922, 0.03200000151991844, 0.9920000471174717, 0.0, 0.0, 0.0, 0.0, 0.0, 1.667048528519405E9, 0.0, 2022-10-29 15:02:08.519
3.0, -2486.842735636048, -1111.6198135796003, -22.68436318123713, 258.79546708380803, -0.01600000075995922, 0.03200000151991844, 0.9920000471174717, 0.0, 0.0, 0.0, 0.0, 0.0, 1.6670485285201745E9, 0.0, 2022-10-29 15:02:08.520
3.0, -2587.69474779116, -1194.8868161430582, -216.79639058141038, 237.49112698622048, -0.01600000075995922, 0.03200000151991844, 0.9920000471174717, 0.0, 0.0, 0.0, 0.0, 0.0, 1.6670485285201745E9, 0.0, 2022-10-29 15:02:08.520
4.0, -2787.9140318189748, -1120.199144077953, -52.43900722870603, 365.29846807196736, -0.01600000075995922, 0.03200000151991844, 0.9920000471174717, 0.0, 0.0, 0.0, 0.0, 0.0, 1.6670485285336857E9, 0.0, 2022-10-29 15:02:08.533
4.0, -2592.8726392798126, -951.3763201781549, 138.5819928580895, 571.5969594777562, -0.01600000075995922, 0.03200000151991844, 0.9920000471174717, 0.0, 0.0, 0.0, 0.0, 0.0, 1.6670485285336857E9, 0.0, 2022-10-29 15:02:08.533
5.0, -2487.1755867321044, -1091.7441152650863, -21.242631748318672, 750.9532116027549, -0.01600000075995922, 0.03200000151991844, 0.9920000471174717, 0.0, 0.0, 0.0, 0.0, 0.0, 1.6670485285493972E9, 0.0, 2022-10-29 15:02:08.549
5.0, -2596.4087146879174, -1203.333380192984, -216.85061913076788, 735.8010069322772, -0.01600000075995922, 0.03200000151991844, 0.9920000471174717, 0.0, 0.0, 0.0, 0.0, 0.0, 1.6670485285493972E9, 0.0, 2022-10-29 15:02:08.549
6.0, -2771.7576640103944, -1100.6076781600714, -47.724863334558904, 850.6608143714257, -0.01600000075995922, 0.03200000151991844, 0.9920000471174717, 0.0, 0.0, 0.0, 0.0, 0.0, 1.6670485285501184E9, 0.0, 2022-10-29 15:02:08.550
6.0, -2603.467775854282, -973.0434305714443, 147.71295859990641, 1047.7367124864832, -0.01600000075995922, 0.03200000151991844, 0.9920000471174717, 0.0, 0.0, 0.0, 0.0, 0.0, 1.6670485285501184E9, 0.0, 2022-10-29 15:02:08.550
7.0, -2491.3119160830975, -1111.877866676543, -15.006348572205752, 1238.4734801766463, -0.01600000075995922, 0.03200000151991844, 0.9920000471174717, 0.0, 0.0, 0.0, 0.0, 0.0, 1.667048528563645E9, 0.0, 2022-10-29 15:02:08.563
7.0, -2588.4128085826524, -1184.6469700643793, -217.2376987761818, 1226.0102635743096, -0.01600000075995922, 0.03200000151991844, 0.9920000471174717, 0.0, 0.0, 0.0, 0.0, 0.0, 1.667048528563645E9, 0.0, 2022-10-29 15:02:08.563
8.0, -2790.131792492699, -1108.4259390174411, -53.523578215856105, 1346.6743957446888, -0.01600000075995922, 0.03200000151991844, 0.9920000471174717, 0.0, 0.0, 0.0, 0.0, 0.0, 1.6670485285794811E9, 0.0, 2022-10-29 15:02:08.579
8.0, -2596.1749709406868, -974.3841847055592, 143.8477719957009, 1546.4841607273556, -0.01600000075995922, 0.03200000151991844, 0.9920000471174717, 0.0, 0.0, 0.0, 0.0, 0.0, 1.6670485285794811E9, 0.0, 2022-10-29 15:02:08.579
9.0, -2496.8207887178287, -1124.6814141748473, -11.574990362860262, 1727.665484030731, -0.01600000075995922, 0.03200000151991844, 0.9920000471174717, 0.0, 0.0, 0.0, 0.0, 0.0, 1.667048528580166E9, 0.0, 2022-10-29 15:02:08.580
9.0, -2606.229691971559, -1180.2881166660227, -221.09166568052024, 1711.4848068724386, -0.01600000075995922, 0.03200000151991844, 0.9920000471174717, 0.0, 0.0, 0.0, 0.0, 0.0, 1.667048528580166E9, 0.0, 2022-10-29 15:02:08.580
10.0, -2780.288375809323, -1101.950302244164, -48.865532821044326, 1843.3200202104636, -0.01600000075995922, 0.03200000151991844, 0.9920000471174717, 0.0, 0.0, 0.0, 0.0, 0.0, 1.6670485285937016E9, 0.0, 2022-10-29 15:02:08.593
10.0, -2580.5010502263904, -961.625516006723, 150.66747956490144, 2026.53958898969, -0.01600000075995922, 0.03200000151991844, 0.9920000471174717, 0.0, 0.0, 0.0, 0.0, 0.0, 1.6670485285937016E9, 0.0, 2022-10-29 15:02:08.593
11.0, -2483.671300473623, -1107.7228378257714, -14.804393974598497, 2219.2398041565903, -0.01600000075995922, 0.03200000151991844, 0.9920000471174717, 0.0, 0.0, 0.0, 0.0, 0.0, 1.6670485286094618E9, 0.0, 2022-10-29 15:02:08.609
11.0, -2595.881388794165, -1187.302299032919, -219.07398965442553, 2204.1511777853593, -0.01600000075995922, 0.03200000151991844, 0.9920000471174717, 0.0, 0.0, 0.0, 0.0, 0.0, 1.6670485286094618E9, 0.0, 2022-10-29 15:02:08.609
12.0, -2780.7895224033855, -1099.0612295283936, -49.43960746424273, 2330.1484072925523, -0.01600000075995922, 0.03200000151991844, 0.9920000471174717, 0.0, 0.0, 0.0, 0.0, 0.0, 1.6670485286102076E9, 0.0, 2022-10-29 15:02:08.610
12.0, -2594.8061675569043, -988.3227918404154, 147.54279315192252, 2526.569822915364, -0.01600000075995922, 0.03200000151991844, 0.9920000471174717, 0.0, 0.0, 0.0, 0.0, 0.0, 1.6670485286102076E9, 0.0, 2022-10-29 15:02:08.610
13.0, -2486.143374344334, -1118.5891171470284, -13.026071545667946, 2713.544251250103, -0.01600000075995922, 0.03200000151991844, 0.9920000471174717, 0.0, 0.0, 0.0, 0.0, 0.0, 1.6670485286236427E9, 0.0, 2022-10-29 15:02:08.623
13.0, -2584.4447747296654, -1175.8114564190619, -213.5819465694949, 2696.035909607541, -0.01600000075995922, 0.03200000151991844, 0.9920000471174717, 0.0, 0.0, 0.0, 0.0, 0.0, 1.6670485286236427E9, 0.0, 2022-10-29 15:02:08.623
14.0, -2767.976625155192, -1095.5438536200672, -56.113458935171366, 2815.8585642878897, -0.01600000075995922, 0.03200000151991844, 0.9920000471174717, 0.0, 0.0, 0.0, 0.0, 0.0, 1.6670485286393907E9, 0.0, 2022-10-29 15:02:08.639
14.0, -2590.8867524033412, -959.6994675295427, 156.389526497107, 3010.028560137376, -0.01600000075995922, 0.03200000151991844, 0.9920000471174717, 0.0, 0.0, 0.0, 0.0, 0.0, 1.6670485286393907E9, 0.0, 2022-10-29 15:02:08.639
15.0, -2495.7960561299697, -1112.094780873973, -10.125779130030423, 3198.5064282543026, -0.01600000075995922, 0.03200000151991844, 0.9920000471174717, 0.0, 0.0, 0.0, 0.0, 0.0, 1.6670485286400945E9, 0.0, 2022-10-29 15:02:08.640
15.0, -2589.5422583692707, -1187.0779050355777, -218.22503236448392, 3170.9714148305357, -0.01600000075995922, 0.03200000151991844, 0.9920000471174717, 0.0, 0.0, 0.0, 0.0, 0.0, 1.6670485286400945E9, 0.0, 2022-10-29 15:02:08.640
16.0, -2767.0753092658706, -1097.3520952486433, -50.89068864705041, 3310.0208951830864, -0.01600000075995922, 0.03200000151991844, 0.9920000471174717, 0.0, 0.0, 0.0, 0.0, 0.0, 1.6670485286536767E9, 0.0, 2022-10-29 15:02:08.653
16.0, -2598.007521918975, -980.6298176315613, 142.71458230912685, 3507.253869096283, -0.01600000075995922, 0.03200000151991844, 0.9920000471174717, 0.0, 0.0, 0.0, 0.0, 0.0, 1.6670485286536767E9, 0.0, 2022-10-29 15:02:08.653
17.0, -2490.339542094618, -1108.1697558704764, -16.50043860450387, 3691.079301668331, -0.01600000075995922, 0.03200000151991844, 0.9920000471174717, 0.0, 0.0, 0.0, 0.0, 0.0, 1.6670485286694357E9, 0.0, 2022-10-29 15:02:08.669
17.0, -2606.7944168648683, -1180.9313794584014, -217.89031131844968, 3657.407112417277, -0.01600000075995922, 0.03200000151991844, 0.9920000471174717, 0.0, 0.0, 0.0, 0.0, 0.0, 1.6670485286694357E9, 0.0, 2022-10-29 15:02:08.669
18.0, -2774.5177101776935, -1091.2018297715113, -58.46211610734463, 3798.09466895042, -0.01600000075995922, 0.03200000151991844, 0.9920000471174717, 0.0, 0.0, 0.0, 0.0, 0.0, 1.667048528670108E9, 0.0, 2022-10-29 15:02:08.670
18.0, -2584.712177576497, -971.4203139906749, 145.78317022277042, 3991.2848110115156, -0.01600000075995922, 0.03200000151991844, 0.9920000471174717, 0.0, 0.0, 0.0, 0.0, 0.0, 1.667048528670108E9, 0.0, 2022-10-29 15:02:08.670
19.0, -2496.2111850250512, -1111.1485861851834, -13.117699094582349, 4171.355384028051, -0.01600000075995922, 0.03200000151991844, 0.9920000471174717, 0.0, 0.0, 0.0, 0.0, 0.0, 1.6670485286836486E9, 0.0, 2022-10-29 15:02:08.683
19.0, -2591.4159482470714, -1181.1202444061637, -220.42783343838528, 4145.896015079692, -0.01600000075995922, 0.03200000151991844, 0.9920000471174717, 0.0, 0.0, 0.0, 0.0, 0.0, 1.6670485286836486E9, 0.0, 2022-10-29 15:02:08.683
20.0, -2756.1884604948573, -1100.635727409739, -56.08540968550369, 4276.796253428794, -0.01600000075995922, 0.03200000151991844, 1.008000047877431, 0.0, 0.0, 0.0, 0.0, 0.0, 1.6670485286993916E9, 0.0, 2022-10-29 15:02:08.699
20.0, -2591.784328392707, -977.3686248701997, 150.19438222050667, 4484.149396622088, -0.01600000075995922, 0.03200000151991844, 1.008000047877431, 0.0, 0.0, 0.0, 0.0, 0.0, 1.6670485286993916E9, 0.0, 2022-10-29 15:02:08.699
21.0, -2504.3267679288983, -1108.7083014640957, -12.10605615656823, 4663.385971948504, -0.01600000075995922, 0.03200000151991844, 1.008000047877431, 0.0, 0.0, 0.0, 0.0, 0.0, 1.667048528700116E9, 0.0, 2022-10-29 15:02:08.700
21.0, -2584.2390802321024, -1184.794696112629, -227.49811430461705, 4634.751427937765, -0.01600000075995922, 0.03200000151991844, 1.008000047877431, 0.0, 0.0, 0.0, 0.0, 0.0, 1.667048528700116E9, 0.0, 2022-10-29 15:02:08.700
22.0, -2759.531931055244, -1101.733388046734, -59.415790596045554, 4772.46950390609, -0.01600000075995922, 0.03200000151991844, 1.008000047877431, 0.0, 0.0, 0.0, 0.0, 0.0, 1.6670485287136965E9, 0.0, 2022-10-29 15:02:08.713
22.0, -2596.4704230371863, -962.7848849929869, 146.25813751714304, 4959.260677143, -0.01600000075995922, 0.03200000151991844, 1.008000047877431, 0.0, 0.0, 0.0, 0.0, 0.0, 1.6670485287136965E9, 0.0, 2022-10-29 15:02:08.713
23.0, -2490.664913390763, -1121.3734726640396, -14.6921969759278, 5144.765324795153, -0.01600000075995922, 0.03200000151991844, 1.008000047877431, 0.0, 0.0, 0.0, 0.0, 0.0, 1.667048528729397E9, 0.0, 2022-10-29 15:02:08.729
23.0, -2605.6724468781613, -1174.1116718892008, -228.28536324528977, 5121.751850417815, -0.01600000075995922, 0.03200000151991844, 1.008000047877431, 0.0, 0.0, 0.0, 0.0, 0.0, 1.667048528729397E9, 0.0, 2022-10-29 15:02:08.729
24.0, -2755.627475501504, -1096.2600444615819, -60.719145730603486, 5263.550157237798, -0.01600000075995922, 0.03200000151991844, 1.008000047877431, 0.0, 0.0, 0.0, 0.0, 0.0, 1.667048528730114E9, 0.0, 2022-10-29 15:02:08.730
24.0, -2571.506590832956, -975.8876244877465, 150.32153881900012, 5466.901607478503, -0.01600000075995922, 0.03200000151991844, 1.008000047877431, 0.0, 0.0, 0.0, 0.0, 0.0, 1.667048528730114E9, 0.0, 2022-10-29 15:02:08.730
25.0, -2490.302143095061, -1103.3789440272376, -13.30656404234469, 5647.851056984626, -0.01600000075995922, 0.03200000151991844, 1.008000047877431, 0.0, 0.0, 0.0, 0.0, 0.0, 1.6670485287436278E9, 0.0, 2022-10-29 15:02:08.743
25.0, -2589.553478069138, -1180.6022682623006, -225.6206845268607, 5622.043877340388, -0.01600000075995922, 0.03200000151991844, 1.008000047877431, 0.0, 0.0, 0.0, 0.0, 0.0, 1.6670485287436278E9, 0.0, 2022-10-29 15:02:08.743
26.0, -2762.6472677183338, -1087.8733188109472, -63.13325115200132, 5756.530679746997, -0.01600000075995922, 0.03200000151991844, 1.008000047877431, 0.0, 0.0, 0.0, 0.0, 0.0, 1.6670485287593813E9, 0.0, 2022-10-29 15:02:08.759
26.0, -2597.5549940243363, -979.2180053982884, 150.9404922616668, 5956.912649422884, -0.01600000075995922, 0.03200000151991844, 1.008000047877431, 0.0, 0.0, 0.0, 0.0, 0.0, 1.6670485287593813E9, 0.0, 2022-10-29 15:02:08.759
27.0, -2503.702204636298, -1115.0193826393224, -9.254382440354675, 6138.965369415935, -0.01600000075995922, 0.03200000151991844, 1.008000047877431, 0.0, 0.0, 0.0, 0.0, 0.0, 1.6670485287601097E9, 0.0, 2022-10-29 15:02:08.760
27.0, -2592.2798651368357, -1171.8939112154767, -223.6815463998355, 6100.090979326516, -0.01600000075995922, 0.03200000151991844, 1.008000047877431, 0.0, 0.0, 0.0, 0.0, 0.0, 1.6670485287601097E9, 0.0, 2022-10-29 15:02:08.760
28.0, -2758.062150372658, -1094.0460236878134, -59.48123884527013, 6253.561513908207, -0.01600000075995922, 0.03200000151991844, 1.008000047877431, 0.0, 0.0, 0.0, 0.0, 0.0, 1.667048528773848E9, 0.0, 2022-10-29 15:02:08.773
28.0, -2598.3702922146767, -975.4537960928865, 153.3284183833748, 6450.33822002681, -0.01600000075995922, 0.03200000151991844, 1.008000047877431, 0.0, 0.0, 0.0, 0.0, 0.0, 1.667048528773848E9, 0.0, 2022-10-29 15:02:08.773
29.0, -2511.215663647279, -1116.472333772108, -8.07070410437882, 6632.854687614366, -0.01600000075995922, 0.03200000151991844, 1.008000047877431, 0.0, 0.0, 0.0, 0.0, 0.0, 1.6670485287894516E9, 0.0, 2022-10-29 15:02:08.789
29.0, -2601.405221028719, -1178.5752424863167, -224.37903774157166, 6609.351286342833, -0.01600000075995922, 0.03200000151991844, 1.008000047877431, 0.0, 0.0, 0.0, 0.0, 0.0, 1.6670485287894516E9, 0.0, 2022-10-29 15:02:08.789
30.0, -2760.231292346958, -1109.0224530603737, -54.924170749261975, 6749.9977039764635, -0.01600000075995922, 0.03200000151991844, 1.008000047877431, 0.0, 0.0, 0.0, 0.0, 0.0, 1.6670485287900991E9, 0.0, 2022-10-29 15:02:08.790
30.0, -2594.746329157613, -976.9703255249187, 152.08490164810792, 6941.340335459448, -0.01600000075995922, 0.03200000151991844, 1.008000047877431, 0.0, 0.0, 0.0, 0.0, 0.0, 1.6670485287900991E9, 0.0, 2022-10-29 15:02:08.790
31.0, -2500.2502769771963, -1106.3689940418117, -12.567933801095933, 7114.7501466549, -0.01600000075995922, 0.03200000151991844, 1.008000047877431, 0.0, 0.0, 0.0, 0.0, 0.0, 1.6670485288037913E9, 0.0, 2022-10-29 15:02:08.803
31.0, -2593.7683453192003, -1184.721768063493, -227.7916964511387, 7084.600943162106, -0.01600000075995922, 0.03200000151991844, 1.008000047877431, 0.0, 0.0, 0.0, 0.0, 0.0, 1.6670485288037913E9, 0.0, 2022-10-29 15:02:08.803
32.0, -2751.7604189473204, -1094.1208216869272, -63.38943429896608, 7234.870123381726, -0.01600000075995922, 0.03200000151991844, 1.008000047877431, 0.0, 0.0, 0.0, 0.0, 0.0, 1.6670485288194053E9, 0.0, 2022-10-29 15:02:08.819
32.0, -2596.126352241263, -967.3569126888178, 154.87299706507474, 7424.260527087841, -0.01600000075995922, 0.03200000151991844, 1.008000047877431, 0.0, 0.0, 0.0, 0.0, 0.0, 1.6670485288194053E9, 0.0, 2022-10-29 15:02:08.819
33.0, -2510.684597853571, -1115.1858081873506, -3.418268559500575, 7606.201050082222, -0.01600000075995922, 0.03200000151991844, 1.008000047877431, 0.0, 0.0, 0.0, 0.0, 0.0, 1.6670485288201318E9, 0.0, 2022-10-29 15:02:08.820
33.0, -2587.949060988147, -1177.486931599211, -227.94316239934415, 7572.659757329617, -0.01600000075995922, 0.03200000151991844, 1.008000047877431, 0.0, 0.0, 0.0, 0.0, 0.0, 1.6670485288201318E9, 0.0, 2022-10-29 15:02:08.820
34.0, -2752.078310443554, -1085.8724723346531, -59.05676020029932, 7721.436717466917, -0.01600000075995922, 0.03200000151991844, 1.008000047877431, 0.0, 0.0, 0.0, 0.0, 0.0, 1.6670485288337948E9, 0.0, 2022-10-29 15:02:08.833
34.0, -2596.679857434705, -973.4361200667918, 158.86534026777372, 7929.728575549088, -0.01600000075995922, 0.03200000151991844, 1.008000047877431, 0.0, 0.0, 0.0, 0.0, 0.0, 1.6670485288337948E9, 0.0, 2022-10-29 15:02:08.833
35.0, -2516.7955943811685, -1116.133872826118, -6.142785677220672, 8099.484504487831, -0.01600000075995922, 0.03200000151991844, 1.008000047877431, 0.0, 0.0, 0.0, 0.0, 0.0, 1.6670485288494265E9, 0.0, 2022-10-29 15:02:08.849
35.0, -2585.95943421172, -1176.546346760355, -226.4602920669131, 8069.264242895879, -0.01600000075995922, 0.03200000151991844, 1.008000047877431, 0.0, 0.0, 0.0, 0.0, 0.0, 1.6670485288494265E9, 0.0, 2022-10-29 15:02:08.849
36.0, -2741.6552092670463, -1094.4686323828064, -60.64434773148969, 8218.029983333312, -0.01600000075995922, 0.03200000151991844, 1.008000047877431, 0.0, 0.0, 0.0, 0.0, 0.0, 1.6670485288500953E9, 0.0, 2022-10-29 15:02:08.850
36.0, -2582.4794573029503, -991.8869164981879, 158.71387431956828, 8414.114807960112, -0.01600000075995922, 0.03200000151991844, 1.008000047877431, 0.0, 0.0, 0.0, 0.0, 0.0, 1.6670485288500953E9, 0.0, 2022-10-29 15:02:08.850
37.0, -2513.68773751799, -1121.4426608132198, -8.04826470464468, 8592.78665839322, -0.01600000075995922, 0.03200000151991844, 1.008000047877431, 0.0, 0.0, 0.0, 0.0, 0.0, 1.6670485288638327E9, 0.0, 2022-10-29 15:02:08.863
37.0, -2597.1679143789224, -1175.5010447227396, -228.97911468707025, 8558.115915853996, -0.01600000075995922, 0.03200000151991844, 1.008000047877431, 0.0, 0.0, 0.0, 0.0, 0.0, 1.6670485288638327E9, 0.0, 2022-10-29 15:02:08.863
38.0, -2755.9416270977817, -1098.139344189316, -61.03142737690359, 8711.664988334756, -0.01600000075995922, 0.03200000151991844, 1.008000047877431, 0.0, 0.0, 0.0, 0.0, 0.0, 1.6670485288794453E9, 0.0, 2022-10-29 15:02:08.879
38.0, -2588.6166331302375, -970.2422455046326, 161.913358731661, 8919.605295821093, -0.01600000075995922, 0.03200000151991844, 1.008000047877431, 0.0, 0.0, 0.0, 0.0, 0.0, 1.6670485288794453E9, 0.0, 2022-10-29 15:02:08.879
39.0, -2501.9369718572125, -1115.1016604383476, -5.4546440853737295, 9092.03899312811, -0.01600000075995922, 0.03200000151991844, 1.008000047877431, 0.0, 0.0, 0.0, 0.0, 0.0, 1.6670485288801E9, 0.0, 2022-10-29 15:02:08.880
39.0, -2596.173100990709, -1167.4209908684716, -233.8652939791791, 9050.539193269797, -0.01600000075995922, 0.03200000151991844, 1.008000047877431, 0.0, 0.0, 0.0, 0.0, 0.0, 1.6670485288801E9, 0.0, 2022-10-29 15:02:08.880
40.0, -2748.4880064860918, -1073.6186901298352, -63.36325499927625, 9210.217961777933, -0.01600000075995922, 0.03200000151991844, 1.008000047877431, 0.0, 0.0, 0.0, 0.0, 0.0, 1.6670485288937333E9, 0.0, 2022-10-29 15:02:08.893
40.0, -2591.601073294878, -979.3956506461836, 153.9604614758864, 9398.50509499712, -0.01600000075995922, 0.03200000151991844, 1.008000047877431, 0.0, 0.0, 0.0, 0.0, 0.0, 1.6670485288937333E9, 0.0, 2022-10-29 15:02:08.893
41.0, -2511.469976844266, -1125.698666962795, -2.81240476667881, 9577.984763820656, -0.01600000075995922, 0.03200000151991844, 1.008000047877431, 0.0, 0.0, 0.0, 0.0, 0.0, 1.6670485289093513E9, 0.0, 2022-10-29 15:02:08.909
41.0, -2590.5221121576615, -1179.8430685712956, -231.3651708588004, 9540.408119015861, -0.01600000075995922, 0.03200000151991844, 1.008000047877431, 0.0, 0.0, 0.0, 0.0, 0.0, 1.6670485289093513E9, 0.0, 2022-10-29 15:02:08.909
42.0, -2728.9657287173904, -1075.3596135592088, -66.61509801074862, 9699.484763631132, -0.01600000075995922, 0.03200000151991844, 1.008000047877431, 0.0, 0.0, 0.0, 0.0, 0.0, 1.6670485289101372E9, 0.0, 2022-10-29 15:02:08.910
42.0, -2587.161812047474, -973.8512489618734, 164.276975503657, 9894.137206574902, -0.01600000075995922, 0.03200000151991844, 1.008000047877431, 0.0, 0.0, 0.0, 0.0, 0.0, 1.6670485289101372E9, 0.0, 2022-10-29 15:02:08.910
43.0, -2519.1105924537405, -1125.46866311552, -2.3841862217523158, 10061.40610204311, -0.01600000075995922, 0.03200000151991844, 1.008000047877431, 0.0, 0.0, 0.0, 0.0, 0.0, 1.6670485289236505E9, 0.0, 2022-10-29 15:02:08.923
43.0, -2591.5954634449445, -1170.8392594279721, -230.04685612441972, 10022.84586354997, -0.01600000075995922, 0.03200000151991844, 1.008000047877431, 0.0, 0.0, 0.0, 0.0, 0.0, 1.6670485289236505E9, 0.0, 2022-10-29 15:02:08.923
44.0, -2737.7582335132174, -1083.4172280137427, -68.32984214043245, 10179.454174194485, -0.01600000075995922, 0.03200000151991844, 1.008000047877431, 0.0, 0.0, 0.0, 0.0, 0.0, 1.6670485289393938E9, 0.0, 2022-10-29 15:02:08.939
44.0, -2609.7695072796196, -986.3294251640327, 163.10077696759254, 10384.608256213833, -0.01600000075995922, 0.03200000151991844, 1.008000047877431, 0.0, 0.0, 0.0, 0.0, 0.0, 1.6670485289393938E9, 0.0, 2022-10-29 15:02:08.939
45.0, -2527.1775566581637, -1126.0576973585412, -4.1662485506385565, 10556.402430628426, -0.01600000075995922, 0.03200000151991844, 1.008000047877431, 0.0, 0.0, 0.0, 0.0, 0.0, 1.6670485289400797E9, 0.0, 2022-10-29 15:02:08.940
45.0, -2590.6455288561992, -1169.1619142978452, -234.54034592118114, 10513.705862784293, -0.01600000075995922, 0.03200000151991844, 1.008000047877431, 0.0, 0.0, 0.0, 0.0, 0.0, 1.6670485289400797E9, 0.0, 2022-10-29 15:02:08.940
46.0, -2727.342612136621, -1086.1828840309754, -69.92864937148988, 10668.59381944919, -0.01600000075995922, 0.03200000151991844, 1.008000047877431, 0.0, 0.0, 0.0, 0.0, 0.0, 1.6670485289536664E9, 0.0, 2022-10-29 15:02:08.953
46.0, -2605.420003631152, -990.7032381622121, 159.6918581579812, 10880.838751784526, -0.01600000075995922, 0.03200000151991844, 1.008000047877431, 0.0, 0.0, 0.0, 0.0, 0.0, 1.6670485289536664E9, 0.0, 2022-10-29 15:02:08.953
47.0, -2518.2878144634888, -1122.985369544942, 0.050488649401813745, 11051.664292110596, -0.01600000075995922, 0.03200000151991844, 1.008000047877431, 0.0, 0.0, 0.0, 0.0, 0.0, 1.6670485289859135E9, 0.0, 2022-10-29 15:02:08.985
47.0, -2582.6795419505797, -1156.234950101003, -235.25279686274007, 11007.202491487376, -0.01600000075995922, 0.03200000151991844, 1.008000047877431, 0.0, 0.0, 0.0, 0.0, 0.0, 1.6670485289859135E9, 0.0, 2022-10-29 15:02:08.985
48.0, -2731.4490222879685, -1087.5572972646914, -64.98637158004567, 11161.133033763617, -0.01600000075995922, 0.03200000151991844, 1.008000047877431, 0.0, 0.0, 0.0, 0.0, 0.0, 1.6670485289865136E9, 0.0, 2022-10-29 15:02:08.986
48.0, -2581.1405731188133, -1003.4319876614027, 166.3731894288212, 11362.468677928206, -0.01600000075995922, 0.03200000151991844, 1.008000047877431, 0.0, 0.0, 0.0, 0.0, 0.0, 1.6670485289865136E9, 0.0, 2022-10-29 15:02:08.986
49.0, -2517.008768678643, -1134.4575126590207, -1.8026317786425352, 11540.55336406827, -0.01600000075995922, 0.03200000151991844, 1.008000047877431, 0.0, 0.0, 0.0, 0.0, 0.0, 1.667048528987207E9, 0.0, 2022-10-29 15:02:08.987
49.0, -2598.8546092589386, -1169.8949346891604, -242.1173832314089, 11497.224753131624, -0.01600000075995922, 0.03200000151991844, 1.008000047877431, 0.0, 0.0, 0.0, 0.0, 0.0, 1.667048528987207E9, 0.0, 2022-10-29 15:02:08.987
50.0, -2744.0412654387765, -1077.8391672298312, -69.77905337326229, 11655.994725950528, -0.01600000075995922, 0.03200000151991844, 1.008000047877431, 0.0, 0.0, 0.0, 0.0, 0.0, 1.6670485289880583E9, 0.0, 2022-10-29 15:02:08.988
50.0, -2600.644151387736, -992.2291173441336, 168.67883775150403, 11856.986299319193, -0.01600000075995922, 0.03200000151991844, 1.008000047877431, 0.0, 0.0, 0.0, 0.0, 0.0, 1.6670485289880583E9, 0.0, 2022-10-29 15:02:08.988
51.0, -2530.5322469184175, -1127.409671192523, -7.758422458078712, 12024.659103982616, -0.01600000075995922, 0.03200000151991844, 1.008000047877431, 0.0, 0.0, 0.0, 0.0, 0.0, 1.6670485289986966E9, 0.0, 2022-10-29 15:02:08.998
51.0, -2591.9320544409566, -1173.8723182920367, -240.0585683058016, 11991.039273330942, -0.01600000075995922, 0.03200000151991844, 1.008000047877431, 0.0, 0.0, 0.0, 0.0, 0.0, 1.6670485289986966E9, 0.0, 2022-10-29 15:02:08.998
52.0, -2725.5025813584216, -1074.441468120087, -67.40234695142135, 12145.381204602309, -0.01600000075995922, 0.03200000151991844, 1.008000047877431, 0.0, 0.0, 0.0, 0.0, 0.0, 1.667048529013757E9, 0.0, 2022-10-29 15:02:09.013
52.0, -2600.4982952894643, -997.5715644308366, 165.9281413340941, 12351.657256608363, -0.01600000075995922, 0.03200000151991844, 1.008000047877431, 0.0, 0.0, 0.0, 0.0, 0.0, 1.667048529013757E9, 0.0, 2022-10-29 15:02:09.013
53.0, -2527.910577049479, -1115.29052538611, 1.406202383339405, 12521.319688048214, -0.01600000075995922, 0.03200000151991844, 1.008000047877431, 0.0, 0.0, 0.0, 0.0, 0.0, 1.6670485290294774E9, 0.0, 2022-10-29 15:02:09.029
53.0, -2600.0738166444935, -1171.3460158719681, -240.1913347542286, 12468.775963620748, -0.01600000075995922, 0.03200000151991844, 1.008000047877431, 0.0, 0.0, 0.0, 0.0, 0.0, 1.6670485290294774E9, 0.0, 2022-10-29 15:02:09.029
54.0, -2719.2906075320207, -1075.9430379522964, -65.31361282616854, 12641.843573970255, -0.01600000075995922, 0.03200000151991844, 1.008000047877431, 0.0, 0.0, 0.0, 0.0, 0.0, 1.6670485290301666E9, 0.0, 2022-10-29 15:02:09.030
54.0, -2604.8739782376215, -987.0306564057246, 170.7320428271778, 12839.487936878577, -0.01600000075995922, 0.03200000151991844, 1.008000047877431, 0.0, 0.0, 0.0, 0.0, 0.0, 1.6670485290301666E9, 0.0, 2022-10-29 15:02:09.030
55.0, -2544.167922156863, -1127.0169816971757, -0.7012312416918576, 13012.33302318072, -0.01600000075995922, 0.03200000151991844, 1.008000047877431, 0.0, 0.0, 0.0, 0.0, 0.0, 1.667048529043763E9, 0.0, 2022-10-29 15:02:09.043
55.0, -2600.4852056396194, -1181.5054541015998, -240.06978800566867, 12958.05772507377, -0.01600000075995922, 0.03200000151991844, 1.008000047877431, 0.0, 0.0, 0.0, 0.0, 0.0, 1.667048529043763E9, 0.0, 2022-10-29 15:02:09.043
56.0, -2701.4176256437786, -1079.9952195542865, -68.90952663356438, 13128.982372748666, -0.01600000075995922, 0.03200000151991844, 1.008000047877431, 0.0, 0.0, 0.0, 0.0, 0.0, 1.6670485290594969E9, 0.0, 2022-10-29 15:02:09.059
56.0, -2608.5129008945078, -984.541752985213, 171.84840296395123, 13328.362049236428, -0.01600000075995922, 0.03200000151991844, 1.008000047877431, 0.0, 0.0, 0.0, 0.0, 0.0, 1.6670485290594969E9, 0.0, 2022-10-29 15:02:09.059
57.0, -2495.710038430989, -1110.3388978447765, -24.387887611053884, 13489.38905167859, -0.01600000075995922, 0.03200000151991844, 1.008000047877431, 0.0, 0.0, 0.0, 0.0, 0.0, 1.667048529060164E9, 0.0, 2022-10-29 15:02:09.060
57.0, -2617.8645207337104, -1198.4154117512517, -219.96221589390188, 13475.014746198896, -0.01600000075995922, 0.03200000151991844, 1.008000047877431, 0.0, 0.0, 0.0, 0.0, 0.0, 1.667048529060164E9, 0.0, 2022-10-29 15:02:09.060
58.0, -2717.8470061491244, -1070.1387132210657, -72.71113493852317, 13619.603018385824, -0.01600000075995922, 0.03200000151991844, 1.008000047877431, 0.0, 0.0, 0.0, 0.0, 0.0, 1.6670485290736997E9, 0.0, 2022-10-29 15:02:09.073
58.0, -2610.053739676252, -987.8496944960207, 171.839053214062, 13832.42015541438, -0.01600000075995922, 0.03200000151991844, 1.008000047877431, 0.0, 0.0, 0.0, 0.0, 0.0, 1.6670485290736997E9, 0.0, 2022-10-29 15:02:09.073
59.0, -2543.06839156989, -1119.2230301895179, -4.362593298312277, 13993.278862358537, -0.01600000075995922, 0.03200000151991844, 1.008000047877431, 0.0, 0.0, 0.0, 0.0, 0.0, 1.6670485290894191E9, 0.0, 2022-10-29 15:02:09.089
59.0, -2607.389060957823, -1176.5426068603992, -239.36668681399897, 13948.80584203545, -0.01600000075995922, 0.03200000151991844, 1.008000047877431, 0.0, 0.0, 0.0, 0.0, 0.0, 1.6670485290894191E9, 0.0, 2022-10-29 15:02:09.089
60.0, -2718.4603497418575, -1071.1391364592128, -71.30680250516161, 14112.725657093339, -0.01600000075995922, 0.03200000151991844, 0.9920000471174717, 0.0, 0.0, 0.0, 0.0, 0.0, 1.6670485290901875E9, 0.0, 2022-10-29 15:02:09.090
60.0, -2609.593731981702, -1013.3352427440695, -316.3525274018757, 14324.34976603603, -0.01600000075995922, 0.03200000151991844, 0.9920000471174717, 0.0, 0.0, 0.0, 0.0, 0.0, 1.6670485290901875E9, 0.0, 2022-10-29 15:02:09.090
61.0, -2548.147175709717, -1141.1145345801488, -486.5441546854563, 14488.64170113951, -0.01600000075995922, 0.03200000151991844, 0.9920000471174717, 0.0, 0.0, 0.0, 0.0, 0.0, 1.6670485291036966E9, 0.0, 2022-10-29 15:02:09.103
61.0, -2589.0972102745436, -1166.330810031388, -245.10182339604944, 14428.105810506735, -0.01600000075995922, 0.03200000151991844, 0.9920000471174717, 0.0, 0.0, 0.0, 0.0, 0.0, 1.6670485291036966E9, 0.0, 2022-10-29 15:02:09.103
62.0, -2701.6345398412086, -1063.3582746014, -70.47467476502061, 14600.391781765502, -0.03200000151991844, 0.03200000151991844, 0.9920000471174717, 0.0, 0.0, 0.0, 0.0, 0.0, 1.6670485291194038E9, 0.0, 2022-10-29 15:02:09.119
62.0, -2607.776140603237, -990.4638845650479, -305.6171445790678, 14812.229065005668, -0.03200000151991844, 0.03200000151991844, 0.9920000471174717, 0.0, 0.0, 0.0, 0.0, 0.0, 1.6670485291194038E9, 0.0, 2022-10-29 15:02:09.119
63.0, -2549.4411810943857, -1133.2027762238868, -485.98877954203635, 14979.064132079016, -0.03200000151991844, 0.03200000151991844, 0.9920000471174717, 0.0, 0.0, 0.0, 0.0, 0.0, 1.6670485291202676E9, 0.0, 2022-10-29 15:02:09.120
63.0, -2604.79731028853, -1169.006708449684, -247.4373909183778, 14926.363331853412, -0.03200000151991844, 0.03200000151991844, 0.9920000471174717, 0.0, 0.0, 0.0, 0.0, 0.0, 1.6670485291202676E9, 0.0, 2022-10-29 15:02:09.120
64.0, -2701.9748707371764, -1065.1104177306406, -75.86574055114761, 15097.287979528308, -0.03200000151991844, 0.03200000151991844, 0.9920000471174717, 0.0, 0.0, 0.0, 0.0, 0.0, 1.6670485291501029E9, 0.0, 2022-10-29 15:02:09.150
64.0, -2611.078472264111, -1009.8346963855438, -307.5749822058715, 15312.44255402917, -0.03200000151991844, 0.03200000151991844, 0.9920000471174717, 0.0, 0.0, 0.0, 0.0, 0.0, 1.6670485291501029E9, 0.0, 2022-10-29 15:02:09.150
65.0, -2546.927968324162, -1150.8233148651198, -488.3991450634785, 15476.749448732473, -0.03200000151991844, 0.03200000151991844, 0.9920000471174717, 0.0, 0.0, 0.0, 0.0, 0.0, 1.66704852915078E9, 0.0, 2022-10-29 15:02:09.150
65.0, -2603.25273160683, -1146.6795057142153, -253.25106539949775, 15420.166632352863, -0.03200000151991844, 0.03200000151991844, 0.9920000471174717, 0.0, 0.0, 0.0, 0.0, 0.0, 1.66704852915078E9, 0.0, 2022-10-29 15:02:09.150
66.0, -2701.8065752391703, -1060.233588188421, -76.08452469855547, 15599.745408525225, -0.03200000151991844, 0.03200000151991844, 0.9920000471174717, 0.0, 0.0, 0.0, 0.0, 0.0, 1.6670485291515384E9, 0.0, 2022-10-29 15:02:09.151
66.0, -2609.967721977271, -1000.799098092597, -312.2592069003731, 15808.87500419747, -0.03200000151991844, 0.03200000151991844, 0.9920000471174717, 0.0, 0.0, 0.0, 0.0, 0.0, 1.6670485291515384E9, 0.0, 2022-10-29 15:02:09.151
67.0, -2549.6693149916828, -1144.0466161454096, -489.635181998834, 15973.454911597539, -0.03200000151991844, 0.03200000151991844, 0.9920000471174717, 0.0, 0.0, 0.0, 0.0, 0.0, 1.6670485291637883E9, 0.0, 2022-10-29 15:02:09.163
