%OpenBCI Raw EEG Data
%Number of channels = 4
%Sample Rate = 200 Hz
%Board = OpenBCI_GUI$BoardGanglionBLE
Sample Index, EXG Channel 0, EXG Channel 1, EXG Channel 2, EXG Channel 3, Accel Channel 0, Accel Channel 1, Accel Channel 2, Other, Other, Other, Other, Other, Timestamp, Other, Timestamp (Formatted)
0.0, 933.0601601451635, -1003.3347502625547, -936.9122570995241, 943.5580593207851, 0.0, 0.0, 0.0, 0.0, 0.0, 0.0, 0.0, 0.0, 1.6670493817661803E9, 0.0, 2022-10-29 15:16:21.766
1.0, 923.4486172590405, -806.8310568407178, -740.64043747494, 927.446570311673, 0.0, 0.03200000151991844, 0.0, 0.0, 0.0, 0.0, 0.0, 0.0, 1.6670493817796333E9, 0.0, 2022-10-29 15:16:21.779
1.0, 925.9524802793749, -1011.4465932664461, -943.4570820219815, 933.0844694948755, 0.0, 0.03200000151991844, 0.0, 0.0, 0.0, 0.0, 0.0, 0.0, 1.6670493817796333E9, 0.0, 2022-10-29 15:16:21.779
2.0, 877.7881787000224, -985.9554351684637, -927.1959970146418, 884.7144734179601, 0.0, 0.03200000151991844, 0.0, 0.0, 0.0, 0.0, 0.0, 0.0, 1.6670493817962315E9, 0.0, 2022-10-29 15:16:21.796
2.0, 935.924923511222, -1010.0441307830624, -938.0865856856108, 941.1944425487891, 0.0, 0.03200000151991844, 0.0, 0.0, 0.0, 0.0, 0.0, 0.0, 1.6670493817962315E9, 0.0, 2022-10-29 15:16:21.796
3.0, 909.1995984278619, -821.771957163699, -745.4424690180458, 914.9927034592256, 0.0, 0.03200000151991844, 0.0, 0.0, 0.0, 0.0, 0.0, 0.0, 1.6670493817969565E9, 0.0, 2022-10-29 15:16:21.796
3.0, 923.40560840955, -988.0198599440046, -934.1671705320477, 934.9656391725875, 0.0, 0.03200000151991844, 0.0, 0.0, 0.0, 0.0, 0.0, 0.0, 1.6670493817969565E9, 0.0, 2022-10-29 15:16:21.796
4.0, 895.5564433895051, -982.3352120113559, -932.0204679574817, 892.0633768308908, 0.0, 0.03200000151991844, 0.0, 0.0, 0.0, 0.0, 0.0, 0.0, 1.6670493818093872E9, 0.0, 2022-10-29 15:16:21.809
4.0, 935.8987442115322, -1010.4069010787643, -936.6542040025815, 948.2516337651759, 0.0, 0.03200000151991844, 0.0, 0.0, 0.0, 0.0, 0.0, 0.0, 1.6670493818093872E9, 0.0, 2022-10-29 15:16:21.809
5.0, 912.1578592928126, -825.9382057143375, -744.0811454341747, 908.4964972361922, 0.0, 0.03200000151991844, 0.0, 0.0, 0.0, 0.0, 0.0, 0.0, 1.667049381825038E9, 0.0, 2022-10-29 15:16:21.825
5.0, 920.1481555481441, -1008.5107718012296, -943.4047234226018, 925.5036922846921, 0.0, 0.03200000151991844, 0.0, 0.0, 0.0, 0.0, 0.0, 0.0, 1.667049381825038E9, 0.0, 2022-10-29 15:16:21.825
6.0, 889.6735807592049, -967.1025994918309, -922.5996599690989, 898.8886942500249, 0.0, 0.03200000151991844, 0.0, 0.0, 0.0, 0.0, 0.0, 0.0, 1.667049381825745E9, 0.0, 2022-10-29 15:16:21.825
6.0, 943.9544887160882, -997.0666779368185, -940.8765510525554, 946.5312797855586, 0.0, 0.03200000151991844, 0.0, 0.0, 0.0, 0.0, 0.0, 0.0, 1.667049381825745E9, 0.0, 2022-10-29 15:16:21.825
7.0, 916.4774437416345, -822.8677478507161, -749.4254624708556, 918.7400832148269, 0.0, 0.03200000151991844, 0.0, 0.0, 0.0, 0.0, 0.0, 0.0, 1.6670493818392987E9, 0.0, 2022-10-29 15:16:21.839
7.0, 924.5350581961684, -991.3334113047458, -939.4179900698364, 935.9080939614214, 0.0, 0.03200000151991844, 0.0, 0.0, 0.0, 0.0, 0.0, 0.0, 1.6670493818392987E9, 0.0, 2022-10-29 15:16:21.839
8.0, 889.5052852611989, -982.0248003150336, -919.7573360027745, 899.5319570424035, 0.0, 0.03200000151991844, 0.0, 0.0, 0.0, 0.0, 0.0, 0.0, 1.66704938185509E9, 0.0, 2022-10-29 15:16:21.855
8.0, 944.2424610126764, -1011.2782977684401, -932.2860008543357, 946.5312797855586, 0.0, 0.03200000151991844, 0.0, 0.0, 0.0, 0.0, 0.0, 0.0, 1.66704938185509E9, 0.0, 2022-10-29 15:16:21.855
9.0, 909.4838308244944, -822.6919725527987, -741.5230538644828, 914.7458700621501, 0.0, 0.03200000151991844, 0.0, 0.0, 0.0, 0.0, 0.0, 0.0, 1.6670493818558726E9, 0.0, 2022-10-29 15:16:21.855
9.0, 937.9650389370508, -988.3414913401939, -935.12832482066, 945.4934575478546, 0.0, 0.03200000151991844, 0.0, 0.0, 0.0, 0.0, 0.0, 0.0, 1.6670493818558726E9, 0.0, 2022-10-29 15:16:21.855
10.0, 894.0455238074064, -978.1951427604072, -920.4005987951532, 896.3268627803773, 0.0, 0.03200000151991844, 0.9920000471174717, 0.0, 0.0, 0.0, 0.0, 0.0, 1.6670493818693814E9, 0.0, 2022-10-29 15:16:21.869
10.0, 943.0269935270771, -988.0647387434728, -923.6767511563376, 955.5332189789042, 0.0, 0.03200000151991844, 0.9920000471174717, 0.0, 0.0, 0.0, 0.0, 0.0, 1.6670493818693814E9, 0.0, 2022-10-29 15:16:21.869
11.0, 924.0844002515078, -797.3915493525565, -733.1755971633829, 920.800768090412, 0.0, 0.01600000075995922, 0.9920000471174717, 0.0, 0.0, 0.0, 0.0, 0.0, 1.667049381885111E9, 0.0, 2022-10-29 15:16:21.885
11.0, 933.9558661845513, -989.0071935323067, -939.3170127710328, 947.6700793220662, 0.0, 0.01600000075995922, 0.9920000471174717, 0.0, 0.0, 0.0, 0.0, 0.0, 1.667049381885111E9, 0.0, 2022-10-29 15:16:21.885
12.0, 886.8125572931021, -981.5273936209269, -932.656250949949, 903.6084479941055, 0.0, 0.01600000075995922, 0.9920000471174717, 0.0, 0.0, 0.0, 0.0, 0.0, 1.6670493818858292E9, 0.0, 2022-10-29 15:16:21.885
12.0, 933.9390366347507, -1013.3389826440252, -930.2384056285955, 942.2004756368697, 0.0, 0.01600000075995922, 0.9920000471174717, 0.0, 0.0, 0.0, 0.0, 0.0, 1.6670493818858292E9, 0.0, 2022-10-29 15:16:21.885
13.0, 905.8112490680069, -827.3855469971895, -750.5044236080721, 919.1140732103959, 0.0, 0.01600000075995922, 0.9920000471174717, 0.0, 0.0, 0.0, 0.0, 0.0, 1.667049381899357E9, 0.0, 2022-10-29 15:16:21.899
13.0, 921.0382517375983, -1011.5700099649839, -945.1980054513551, 942.9727649777196, 0.0, 0.01600000075995922, 0.9920000471174717, 0.0, 0.0, 0.0, 0.0, 0.0, 1.667049381899357E9, 0.0, 2022-10-29 15:16:21.899
14.0, 891.408894338645, -965.8609527065419, -920.5333652435802, 908.4216992370784, 0.0, 0.01600000075995922, 0.9920000471174717, 0.0, 0.0, 0.0, 0.0, 0.0, 1.6670493819150007E9, 0.0, 2022-10-29 15:16:21.915
14.0, 941.3328188471496, -983.9919876917265, -920.9447542387061, 954.1868549948558, 0.0, 0.01600000075995922, 0.9920000471174717, 0.0, 0.0, 0.0, 0.0, 0.0, 1.6670493819150007E9, 0.0, 2022-10-29 15:16:21.915
15.0, 907.112734252587, -798.9922265335917, -741.1359742190689, 920.0939269987866, 0.0, 0.01600000075995922, 0.9920000471174717, 0.0, 0.0, 0.0, 0.0, 0.0, 1.6670493819158337E9, 0.0, 2022-10-29 15:16:21.915
15.0, 938.6457007289864, -988.3003524406813, -935.9716722606681, 945.2989827501588, 0.0, 0.01600000075995922, 0.9920000471174717, 0.0, 0.0, 0.0, 0.0, 0.0, 1.6670493819158337E9, 0.0, 2022-10-29 15:16:21.915
16.0, 890.1635076534003, -985.9741346682422, -918.7830920643173, 897.7592444634065, 0.0, 0.01600000075995922, 0.9920000471174717, 0.0, 0.0, 0.0, 0.0, 0.0, 1.6670493819294572E9, 0.0, 2022-10-29 15:16:21.929
16.0, 927.4690097114071, -1021.8135959436186, -927.108109365683, 942.8025995297357, 0.0, 0.01600000075995922, 0.9920000471174717, 0.0, 0.0, 0.0, 0.0, 0.0, 1.6670493819294572E9, 0.0, 2022-10-29 15:16:21.929
17.0, 903.9899177895859, -796.7445466602221, -741.1247545192018, 911.3201217027381, 0.0, 0.01600000075995922, 0.9920000471174717, 0.0, 0.0, 0.0, 0.0, 0.0, 1.6670493819450052E9, 0.0, 2022-10-29 15:16:21.945
17.0, 935.4742655665614, -979.3956506461836, -947.7074783216231, 947.1801524278708, 0.0, 0.01600000075995922, 0.9920000471174717, 0.0, 0.0, 0.0, 0.0, 0.0, 1.6670493819450052E9, 0.0, 2022-10-29 15:16:21.945
18.0, 890.7955507459119, -989.9814374707639, -943.0812220764346, 905.4559585722163, 0.0, 0.01600000075995922, 0.9920000471174717, 0.0, 0.0, 0.0, 0.0, 0.0, 1.667049381945748E9, 0.0, 2022-10-29 15:16:21.945
18.0, 922.345346772112, -1018.2363816360012, -946.3536345376633, 931.3959046648815, 0.0, 0.01600000075995922, 0.9920000471174717, 0.0, 0.0, 0.0, 0.0, 0.0, 1.667049381945748E9, 0.0, 2022-10-29 15:16:21.945
19.0, 903.686985893175, -825.5399063690566, -750.6203605066985, 915.1011605579406, 0.0, 0.01600000075995922, 0.9920000471174717, 0.0, 0.0, 0.0, 0.0, 0.0, 1.6670493819594598E9, 0.0, 2022-10-29 15:16:21.959
19.0, 931.7268858109601, -990.0599753698334, -941.15891349921, 932.994711895939, 0.0, 0.01600000075995922, 0.9920000471174717, 0.0, 0.0, 0.0, 0.0, 0.0, 1.6670493819594598E9, 0.0, 2022-10-29 15:16:21.959
20.0, 890.3654622510076, -988.9230457833037, -938.0734960357659, 900.5791290299967, 0.0, 0.01600000075995922, 0.9920000471174717, 0.0, 0.0, 0.0, 0.0, 0.0, 1.6670493819750295E9, 0.0, 2022-10-29 15:16:21.975
20.0, 924.334973548539, -1025.7834997465834, -943.3654544730671, 928.3404064010829, 0.0, 0.01600000075995922, 0.9920000471174717, 0.0, 0.0, 0.0, 0.0, 0.0, 1.6670493819750295E9, 0.0, 2022-10-29 15:16:21.975
21.0, 899.4496792433783, -821.9458625116386, -744.7000988768414, 906.9444387545809, 0.0, 0.03200000151991844, 0.9920000471174717, 0.0, 0.0, 0.0, 0.0, 0.0, 1.66704938197579E9, 0.0, 2022-10-29 15:16:21.975
21.0, 945.9198061428033, -971.925200484693, -934.9731189724989, 946.4695714362897, 0.0, 0.03200000151991844, 0.9920000471174717, 0.0, 0.0, 0.0, 0.0, 0.0, 1.66704938197579E9, 0.0, 2022-10-29 15:16:21.975
22.0, 891.6781671354547, -1000.3615297977813, -943.8273321175948, 904.5396830830723, 0.0, 0.03200000151991844, 0.9920000471174717, 0.0, 0.0, 0.0, 0.0, 0.0, 1.667049381989384E9, 0.0, 2022-10-29 15:16:21.989
22.0, 923.321460660547, -1010.1488479818217, -936.1698869583197, 931.3734652651474, 0.0, 0.03200000151991844, 0.9920000471174717, 0.0, 0.0, 0.0, 0.0, 0.0, 1.667049381989384E9, 0.0, 2022-10-29 15:16:21.989
23.0, 898.8999139498919, -824.509563931264, -735.3204297879711, 906.5068704597652, 0.0, 0.03200000151991844, 0.9920000471174717, 0.0, 0.0, 0.0, 0.0, 0.0, 1.6670493820051172E9, 0.0, 2022-10-29 15:16:22.005
23.0, 944.00497736549, -983.4646617979743, -933.5706564891152, 951.1257468811236, 0.0, 0.03200000151991844, 0.9920000471174717, 0.0, 0.0, 0.0, 0.0, 0.0, 1.6670493820051172E9, 0.0, 2022-10-29 15:16:22.005
24.0, 901.8806142145768, -983.4740115478635, -935.7454083133489, 914.674811962992, 0.0, 0.03200000151991844, 0.9920000471174717, 0.0, 0.0, 0.0, 0.0, 0.0, 1.6670493820058784E9, 0.0, 2022-10-29 15:16:22.005
24.0, 913.5977207757533, -1026.5090403379872, -943.7300947187468, 923.0970666632056, 0.0, 0.03200000151991844, 0.9920000471174717, 0.0, 0.0, 0.0, 0.0, 0.0, 1.6670493820058784E9, 0.0, 2022-10-29 15:16:22.005
25.0, 891.0461240429431, -815.2364819911309, -738.6208914988674, 897.1758200703189, 0.0, 0.03200000151991844, 0.9920000471174717, 0.0, 0.0, 0.0, 0.0, 0.0, 1.6670493820193331E9, 0.0, 2022-10-29 15:16:22.019
25.0, 946.2077784393914, -973.5819761650637, -928.6844771970063, 966.6164124975912, 0.0, 0.03200000151991844, 0.9920000471174717, 0.0, 0.0, 0.0, 0.0, 0.0, 1.6670493820193331E9, 0.0, 2022-10-29 15:16:22.019
26.0, 907.3072090502828, -975.809086588677, -928.0187750048935, 921.271995484829, 0.0, 0.03200000151991844, 0.9920000471174717, 0.0, 0.0, 0.0, 0.0, 0.0, 1.6670493820349853E9, 0.0, 2022-10-29 15:16:22.034
26.0, 914.6635922631249, -990.174042318482, -930.5544271748513, 928.9238307941705, 0.0, 0.03200000151991844, 0.9920000471174717, 0.0, 0.0, 0.0, 0.0, 0.0, 1.6670493820349853E9, 0.0, 2022-10-29 15:16:22.034
27.0, 897.6171282650903, -815.8554354337975, -742.7048622504808, 901.7497177161276, 0.0, 0.03200000151991844, 0.9920000471174717, 0.0, 0.0, 0.0, 0.0, 0.0, 1.667049382035745E9, 0.0, 2022-10-29 15:16:22.035
27.0, 939.4983979188837, -1006.816597121302, -942.1219377378002, 956.9038923126645, 0.0, 0.03200000151991844, 0.9920000471174717, 0.0, 0.0, 0.0, 0.0, 0.0, 1.667049382035745E9, 0.0, 2022-10-29 15:16:22.035
28.0, 904.4087865846232, -989.8860700218938, -942.6960123809986, 923.8974052537233, 0.0, 0.03200000151991844, 0.9920000471174717, 0.0, 0.0, 0.0, 0.0, 0.0, 1.6670493820493417E9, 0.0, 2022-10-29 15:16:22.049
28.0, 908.7321109334007, -1005.7170665343292, -935.5135345160961, 915.9856468974613, 0.0, 0.03200000151991844, 0.9920000471174717, 0.0, 0.0, 0.0, 0.0, 0.0, 1.6670493820493417E9, 0.0, 2022-10-29 15:16:22.049
29.0, 891.2031998410821, -802.4254546929151, -725.6546583524905, 899.7432613899, 0.0, 0.03200000151991844, 0.9920000471174717, 0.0, 0.0, 0.0, 0.0, 0.0, 1.6670493820649924E9, 0.0, 2022-10-29 15:16:22.064
29.0, 962.6521185445599, -982.611964608077, -929.9448234820738, 972.5759430769831, 0.0, 0.03200000151991844, 0.9920000471174717, 0.0, 0.0, 0.0, 0.0, 0.0, 1.6670493820649924E9, 0.0, 2022-10-29 15:16:22.064
30.0, 896.1772667821497, -991.4138191537932, -946.2227380392142, 911.8567973463796, 0.0, 0.03200000151991844, 0.9920000471174717, 0.0, 0.0, 0.0, 0.0, 0.0, 1.6670493820657356E9, 0.0, 2022-10-29 15:16:22.065
30.0, 884.028201776091, -1011.7177360132337, -939.4927880689502, 885.5335115082562, 0.0, 0.03200000151991844, 0.9920000471174717, 0.0, 0.0, 0.0, 0.0, 0.0, 1.6670493820657356E9, 0.0, 2022-10-29 15:16:22.065
31.0, 876.5820609643124, -808.5121418708004, -741.1154047693126, 882.0292252497748, 0.0, 0.01600000075995922, 0.9920000471174717, 0.0, 0.0, 0.0, 0.0, 0.0, 1.6670493820792985E9, 0.0, 2022-10-29 15:16:22.079
31.0, 962.048124701716, -994.3122416194528, -931.5567203629762, 968.5237614749931, 0.0, 0.01600000075995922, 0.9920000471174717, 0.0, 0.0, 0.0, 0.0, 0.0, 1.6670493820792985E9, 0.0, 2022-10-29 15:16:22.079
32.0, 910.0279862680472, -1000.8327571921982, -945.4784979480319, 916.1707719452679, 0.0, 0.01600000075995922, 0.9920000471174717, 0.0, 0.0, 0.0, 0.0, 0.0, 1.667049382095159E9, 0.0, 2022-10-29 15:16:22.095
32.0, 879.1869012834504, -1014.7377052274533, -931.2014298671857, 881.5486481054686, 0.0, 0.01600000075995922, 0.9920000471174717, 0.0, 0.0, 0.0, 0.0, 0.0, 1.667049382095159E9, 0.0, 2022-10-29 15:16:22.095
33.0, 879.7983749262057, -813.2711645644158, -731.9825690775178, 879.409425330814, 0.0, 0.01600000075995922, 0.9920000471174717, 0.0, 0.0, 0.0, 0.0, 0.0, 1.6670493820958688E9, 0.0, 2022-10-29 15:16:22.095
33.0, 961.9621070027351, -988.0796983432956, -929.1818838911131, 975.556643341668, 0.0, 0.01600000075995922, 0.9920000471174717, 0.0, 0.0, 0.0, 0.0, 0.0, 1.6670493820958688E9, 0.0, 2022-10-29 15:16:22.095
34.0, 898.6886096023954, -1003.0710873156786, -945.9385056425817, 917.9565741741098, 0.0, 0.01600000075995922, 0.9920000471174717, 0.0, 0.0, 0.0, 0.0, 0.0, 1.667049382109321E9, 0.0, 2022-10-29 15:16:22.109
34.0, 874.078197943978, -1003.1084863152355, -928.4077246002853, 881.1690482599661, 0.0, 0.01600000075995922, 0.9920000471174717, 0.0, 0.0, 0.0, 0.0, 0.0, 1.667049382109321E9, 0.0, 2022-10-29 15:16:22.109
35.0, 883.1642848863266, -808.3737655724399, -733.0409607649781, 896.4297100291587, 0.0, 0.01600000075995922, 0.9920000471174717, 0.0, 0.0, 0.0, 0.0, 0.0, 1.6670493821250415E9, 0.0, 2022-10-29 15:16:22.125
35.0, 961.8873090036213, -986.241537515074, -931.7923340601847, 979.8238691911101, 0.0, 0.01600000075995922, 0.9920000471174717, 0.0, 0.0, 0.0, 0.0, 0.0, 1.6670493821250415E9, 0.0, 2022-10-29 15:16:22.125
36.0, 919.4712336561643, -994.5310257668607, -945.2092251512222, 929.8644156330265, 0.0, 0.01600000075995922, 0.9920000471174717, 0.0, 0.0, 0.0, 0.0, 0.0, 1.6670493821257377E9, 0.0, 2022-10-29 15:16:22.125
36.0, 889.6174822598696, -1011.73830546299, -938.4418761814013, 905.0483094770461, 0.0, 0.01600000075995922, 0.9920000471174717, 0.0, 0.0, 0.0, 0.0, 0.0, 1.6670493821257377E9, 0.0, 2022-10-29 15:16:22.125
37.0, 883.3157508345321, -806.2588521474972, -733.8338195555843, 891.4874322377145, 0.0, 0.01600000075995922, 0.9920000471174717, 0.0, 0.0, 0.0, 0.0, 0.0, 1.6670493821393423E9, 0.0, 2022-10-29 15:16:22.139
37.0, 966.2686018017121, -1014.4684324306436, -954.7067010886967, 978.3148195589893, 0.0, 0.01600000075995922, 0.9920000471174717, 0.0, 0.0, 0.0, 0.0, 0.0, 1.6670493821393423E9, 0.0, 2022-10-29 15:16:22.139
38.0, 918.1155199222267, -991.4194290037267, -936.9085171995685, 924.4883094467223, 0.0, 0.01600000075995922, 0.9920000471174717, 0.0, 0.0, 0.0, 0.0, 0.0, 1.6670493821550884E9, 0.0, 2022-10-29 15:16:22.155
38.0, 883.8187673785724, -1017.9353196895681, -936.9346964992583, 888.1121725277044, 0.0, 0.01600000075995922, 0.9920000471174717, 0.0, 0.0, 0.0, 0.0, 0.0, 1.6670493821550884E9, 0.0, 2022-10-29 15:16:22.155
39.0, 883.7364895795472, -805.9372207513079, -725.7294563516043, 884.5031690704636, 0.0, 0.01600000075995922, 0.9920000471174717, 0.0, 0.0, 0.0, 0.0, 0.0, 1.6670493821557736E9, 0.0, 2022-10-29 15:16:22.155
39.0, 977.5649696178734, -1008.6042693001218, -941.3552582468837, 971.3081169920042, 0.0, 0.01600000075995922, 0.9920000471174717, 0.0, 0.0, 0.0, 0.0, 0.0, 1.6670493821557736E9, 0.0, 2022-10-29 15:16:22.155
40.0, 922.7698254170828, -1015.1210449729115, -953.2238307562657, 935.1900331699289, 0.0, 0.01600000075995922, 1.008000047877431, 0.0, 0.0, 0.0, 0.0, 0.0, 1.66704938216938E9, 0.0, 2022-10-29 15:16:22.169
40.0, 875.2338270302862, -1033.7420068522915, -947.1708026779816, 879.2579593826085, 0.0, 0.01600000075995922, 1.008000047877431, 0.0, 0.0, 0.0, 0.0, 0.0, 1.66704938216938E9, 0.0, 2022-10-29 15:16:22.169
41.0, 875.4974899771623, -820.1731499326415, -735.5392139353789, 880.6473322161473, 0.0, 0.01600000075995922, 1.008000047877431, 0.0, 0.0, 0.0, 0.0, 0.0, 1.6670493821849985E9, 0.0, 2022-10-29 15:16:22.184
41.0, 970.1487480057403, -1008.0264547569677, -935.6967896139249, 972.8713951734826, 0.0, 0.01600000075995922, 1.008000047877431, 0.0, 0.0, 0.0, 0.0, 0.0, 1.6670493821849985E9, 0.0, 2022-10-29 15:16:22.184
42.0, 917.5190058792941, -1016.2710642092861, -943.679606069345, 926.397528374102, 0.0, 0.01600000075995922, 1.008000047877431, 0.0, 0.0, 0.0, 0.0, 0.0, 1.6670493821857553E9, 0.0, 2022-10-29 15:16:22.185
42.0, 871.9726342689246, -1026.6605062861927, -939.8592982646078, 881.4869397561997, 0.0, 0.01600000075995922, 1.008000047877431, 0.0, 0.0, 0.0, 0.0, 0.0, 1.6670493821857553E9, 0.0, 2022-10-29 15:16:22.185
43.0, 894.5111413518898, -802.5638309912756, -722.1204528943636, 905.6036846204661, 0.0, 0.01600000075995922, 1.008000047877431, 0.0, 0.0, 0.0, 0.0, 0.0, 1.6670493821994376E9, 0.0, 2022-10-29 15:16:22.199
43.0, 978.7654775036499, -976.5009680804797, -917.4498177301139, 984.1471935398877, 0.0, 0.01600000075995922, 1.008000047877431, 0.0, 0.0, 0.0, 0.0, 0.0, 1.6670493821994376E9, 0.0, 2022-10-29 15:16:22.199
44.0, 913.8651236225851, -993.1192135335878, -938.0398369361646, 930.582476424519, 0.0, 0.01600000075995922, 1.008000047877431, 0.0, 0.0, 0.0, 0.0, 0.0, 1.6670493822151089E9, 0.0, 2022-10-29 15:16:22.215
44.0, 886.7265395941213, -1000.8682862417772, -918.5381286172196, 896.7681709751487, 0.0, 0.01600000075995922, 1.008000047877431, 0.0, 0.0, 0.0, 0.0, 0.0, 1.6670493822151089E9, 0.0, 2022-10-29 15:16:22.215
45.0, 895.7415684373118, -793.3393677505665, -704.9954509972595, 909.3772436757572, 0.0, 0.01600000075995922, 1.008000047877431, 0.0, 0.0, 0.0, 0.0, 0.0, 1.667049382215802E9, 0.0, 2022-10-29 15:16:22.215
45.0, 982.2922031618655, -974.1803601579741, -907.7933960445225, 991.1819453565404, 0.0, 0.01600000075995922, 1.008000047877431, 0.0, 0.0, 0.0, 0.0, 0.0, 1.667049382215802E9, 0.0, 2022-10-29 15:16:22.215
46.0, 921.4421609328128, -977.3723647701554, -903.3503948971629, 935.1937730698846, 0.0, 0.01600000075995922, 1.008000047877431, 0.0, 0.0, 0.0, 0.0, 0.0, 1.6670493822294168E9, 0.0, 2022-10-29 15:16:22.229
46.0, 889.7895176578313, -1019.6107948697172, -928.5423609986901, 891.1545811416581, 0.0, 0.01600000075995922, 1.008000047877431, 0.0, 0.0, 0.0, 0.0, 0.0, 1.6670493822294168E9, 0.0, 2022-10-29 15:16:22.229
47.0, 909.2800062769093, -1245.8971815886907, -694.1123421262018, 915.7313337004744, 0.0, 0.01600000075995922, 1.008000047877431, 0.0, 0.0, 0.0, 0.0, 0.0, 1.6670493822450216E9, 0.0, 2022-10-29 15:16:22.245
47.0, 980.8673012787476, -1448.4819523384795, -899.924646537751, 990.4451850652695, 0.0, 0.01600000075995922, 1.008000047877431, 0.0, 0.0, 0.0, 0.0, 0.0, 1.6670493822450216E9, 0.0, 2022-10-29 15:16:22.245
48.0, 935.4293867670931, -1458.6039915685542, -915.7462933002971, 947.3970666253008, 0.0, 0.01600000075995922, 1.008000047877431, 0.0, 0.0, 0.0, 0.0, 0.0, 1.6670493822458153E9, 0.0, 2022-10-29 15:16:22.245
48.0, 911.2565434034914, -1495.5766425305046, -912.5729881878942, 913.8856930723414, 0.0, 0.01600000075995922, 1.008000047877431, 0.0, 0.0, 0.0, 0.0, 0.0, 1.6670493822458153E9, 0.0, 2022-10-29 15:16:22.245
49.0, 888.9555199677125, -1286.88835505303, -704.4120266041718, 899.344962044619, 0.0, 0.01600000075995922, 1.008000047877431, 0.0, 0.0, 0.0, 0.0, 0.0, 1.6670493822593436E9, 0.0, 2022-10-29 15:16:22.259
49.0, 967.1212989916094, -1461.3602978358977, -905.6616530697793, 970.5283478512429, 0.0, 0.01600000075995922, 1.008000047877431, 0.0, 0.0, 0.0, 0.0, 0.0, 1.6670493822593436E9, 0.0, 2022-10-29 15:16:22.259
50.0, 918.9195984127, -1477.638212393038, -923.1400755126961, 932.0728265568614, 0.0, 0.01600000075995922, 0.9920000471174717, 0.0, 0.0, 0.0, 0.0, 0.0, 1.667049382275037E9, 0.0, 2022-10-29 15:16:22.275
50.0, 896.7064626258798, -1490.4548495411873, -921.754442579113, 903.9618685399182, 0.0, 0.01600000075995922, 0.9920000471174717, 0.0, 0.0, 0.0, 0.0, 0.0, 1.667049382275037E9, 0.0, 2022-10-29 15:16:22.275
51.0, 889.9671629057266, -1263.0221834857948, -697.1753201899119, 895.992141734343, 0.0, 0.01600000075995922, 0.9920000471174717, 0.0, 0.0, 0.0, 0.0, 0.0, 1.6670493822757256E9, 0.0, 2022-10-29 15:16:22.275
51.0, 969.0866164183244, -1449.428147027269, -898.2080324580893, 972.1682939818129, 0.0, 0.01600000075995922, 0.9920000471174717, 0.0, 0.0, 0.0, 0.0, 0.0, 1.6670493822757256E9, 0.0, 2022-10-29 15:16:22.275
52.0, 935.7622378631495, -1470.7698861244135, -917.821937775705, 944.7641770564951, 0.0, 0.01600000075995922, 0.9920000471174717, 0.0, 0.0, 0.0, 0.0, 0.0, 1.6670493822893121E9, 0.0, 2022-10-29 15:16:22.289
52.0, 892.4037077268586, -1492.2630911697634, -908.6086942348629, 900.250017833896, 0.0, 0.01600000075995922, 0.9920000471174717, 0.0, 0.0, 0.0, 0.0, 0.0, 1.6670493822893121E9, 0.0, 2022-10-29 15:16:22.289
53.0, 890.6571744475514, -1262.2648537447676, -690.4621997694485, 898.006077860482, 0.0, 0.01600000075995922, 0.9920000471174717, 0.0, 0.0, 0.0, 0.0, 0.0, 1.6670493823050044E9, 0.0, 2022-10-29 15:16:22.305
53.0, 972.3160200300626, -1445.4657230242155, -900.3135961331427, 977.4060238697566, 0.0, 0.01600000075995922, 0.9920000471174717, 0.0, 0.0, 0.0, 0.0, 0.0, 1.6670493823050044E9, 0.0, 2022-10-29 15:16:22.305
54.0, 944.3696176111698, -1462.4355190731585, -914.5383056146093, 945.9141962928697, 0.0, 0.01600000075995922, 0.9920000471174717, 0.0, 0.0, 0.0, 0.0, 0.0, 1.6670493823057954E9, 0.0, 2022-10-29 15:16:22.305
54.0, 891.1265318919905, -1474.8669465258718, -906.1216607643291, 909.0705718793906, 0.0, 0.01600000075995922, 0.9920000471174717, 0.0, 0.0, 0.0, 0.0, 0.0, 1.6670493823057954E9, 0.0, 2022-10-29 15:16:22.305
55.0, 889.6417916095816, -1255.8303558710031, -689.684300578665, 901.1793829728849, 0.0, 0.01600000075995922, 0.9920000471174717, 0.0, 0.0, 0.0, 0.0, 0.0, 1.6670493823193555E9, 0.0, 2022-10-29 15:16:22.319
55.0, 978.6084017055109, -1454.6490473654121, -887.8335499810055, 982.1239076638594, 0.0, 0.01600000075995922, 0.9920000471174717, 0.0, 0.0, 0.0, 0.0, 0.0, 1.6670493823193555E9, 0.0, 2022-10-29 15:16:22.319
56.0, 936.8393290503882, -1475.1567887724377, -915.1815684069879, 942.1948657869361, 0.0, 0.01600000075995922, 0.9920000471174717, 0.0, 0.0, 0.0, 0.0, 0.0, 1.6670493823350656E9, 0.0, 2022-10-29 15:16:22.335
56.0, 896.3044233806431, -1482.2625986882485, -910.3140886146575, 905.3961201729253, 0.0, 0.01600000075995922, 0.9920000471174717, 0.0, 0.0, 0.0, 0.0, 0.0, 1.6670493823350656E9, 0.0, 2022-10-29 15:16:22.335
57.0, 895.0440770955756, -1256.7746806098148, -691.3635156587698, 899.4010605439544, 0.0, 0.01600000075995922, 0.9920000471174717, 0.0, 0.0, 0.0, 0.0, 0.0, 1.667049382335809E9, 0.0, 2022-10-29 15:16:22.335
57.0, 980.2371281362139, -1442.4476237599738, -889.0751967662945, 996.6029303423129, 0.0, 0.01600000075995922, 0.9920000471174717, 0.0, 0.0, 0.0, 0.0, 0.0, 1.667049382335809E9, 0.0, 2022-10-29 15:16:22.335
58.0, 931.6128188623115, -1471.7216906631365, -913.588371025864, 949.5792982494459, 0.0, 0.01600000075995922, 0.9920000471174717, 0.0, 0.0, 0.0, 0.0, 0.0, 1.667049382349414E9, 0.0, 2022-10-29 15:16:22.349
58.0, 897.1814299202524, -1477.686831092462, -909.4052929254249, 906.5498793092556, 0.0, 0.01600000075995922, 0.9920000471174717, 0.0, 0.0, 0.0, 0.0, 0.0, 1.667049382349414E9, 0.0, 2022-10-29 15:16:22.349
59.0, 897.8564818622544, -1269.847500904929, -700.9713186449371, 900.7380747781135, 0.0, 0.01600000075995922, 0.9920000471174717, 0.0, 0.0, 0.0, 0.0, 0.0, 1.6670493823650289E9, 0.0, 2022-10-29 15:16:22.365
59.0, 969.4362970641814, -1453.6991127766669, -894.991718496196, 968.9519800199196, 0.0, 0.01600000075995922, 0.9920000471174717, 0.0, 0.0, 0.0, 0.0, 0.0, 1.6670493823650289E9, 0.0, 2022-10-29 15:16:22.365
60.0, 935.6406911145896, -1482.6365886838175, -917.1113567841239, 940.5829689060338, 0.0, 0.01600000075995922, 0.9920000471174717, 0.0, 0.0, 0.0, 0.0, 0.0, 1.6670493823657253E9, 0.0, 2022-10-29 15:16:22.365
60.0, 899.9564356873743, -1485.5350111494772, -909.005123630166, 908.2908027386293, 0.0, 0.01600000075995922, 0.9920000471174717, 0.0, 0.0, 0.0, 0.0, 0.0, 1.6670493823657253E9, 0.0, 2022-10-29 15:16:22.365
61.0, 893.6958431615494, -1262.0030607478693, -699.5576364616863, 904.0310566890985, 0.0, 0.01600000075995922, 0.9920000471174717, 0.0, 0.0, 0.0, 0.0, 0.0, 1.667049382379364E9, 0.0, 2022-10-29 15:16:22.379
61.0, 963.0429380899295, -1450.7689011613838, -903.7393444925547, 967.173657590989, 0.0, 0.01600000075995922, 0.9920000471174717, 0.0, 0.0, 0.0, 0.0, 0.0, 1.667049382379364E9, 0.0, 2022-10-29 15:16:22.379
62.0, 933.9820454842411, -1470.992410171777, -919.3889558571391, 944.9792213039473, 0.0, 0.01600000075995922, 0.9920000471174717, 0.0, 0.0, 0.0, 0.0, 0.0, 1.6670493823950388E9, 0.0, 2022-10-29 15:16:22.395
62.0, 900.6501871291548, -1486.6214520866051, -920.3164510461502, 909.2164279776625, 0.0, 0.01600000075995922, 0.9920000471174717, 0.0, 0.0, 0.0, 0.0, 0.0, 1.6670493823950388E9, 0.0, 2022-10-29 15:16:22.395
63.0, 887.2276861881837, -1267.3455078345723, -699.2939735148102, 895.0085480459966, 0.0, 0.01600000075995922, 0.9920000471174717, 0.0, 0.0, 0.0, 0.0, 0.0, 1.667049382395797E9, 0.0, 2022-10-29 15:16:22.395
63.0, 961.8929188535549, -1447.692833447829, -890.142938203644, 968.368555626832, 0.0, 0.01600000075995922, 0.9920000471174717, 0.0, 0.0, 0.0, 0.0, 0.0, 1.667049382395797E9, 0.0, 2022-10-29 15:16:22.395
64.0, 938.0678861858323, -1488.022044620011, -921.8703794777393, 942.8755275788717, 0.0, 0.01600000075995922, 0.9920000471174717, 0.0, 0.0, 0.0, 0.0, 0.0, 1.6670493824093227E9, 0.0, 2022-10-29 15:16:22.409
64.0, 909.2613067771308, -1493.65433395328, -916.3932959926315, 907.1613529520109, 0.0, 0.01600000075995922, 0.9920000471174717, 0.0, 0.0, 0.0, 0.0, 0.0, 1.6670493824093227E9, 0.0, 2022-10-29 15:16:22.409
65.0, 886.9565434413962, -1264.1871623219922, -702.6262243753299, 899.5356969423592, 0.0, 0.01600000075995922, 0.9920000471174717, 0.0, 0.0, 0.0, 0.0, 0.0, 1.6670493824250567E9, 0.0, 2022-10-29 15:16:22.425
65.0, 961.5993367070332, -1441.6959038688801, -894.6719570499845, 975.4500561929308, 0.0, 0.01600000075995922, 0.9920000471174717, 0.0, 0.0, 0.0, 0.0, 0.0, 1.6670493824250567E9, 0.0, 2022-10-29 15:16:22.425
66.0, 940.1491405111738, -1472.4621908543631, -929.2866010898724, 958.8318107398227, 0.0, 0.01600000075995922, 0.9920000471174717, 0.0, 0.0, 0.0, 0.0, 0.0, 1.667049382425763E9, 0.0, 2022-10-29 15:16:22.425
66.0, 896.4091405794024, -1497.0931719625369, -922.4594137207605, 903.3036461477168, 0.0, 0.01600000075995922, 0.9920000471174717, 0.0, 0.0, 0.0, 0.0, 0.0, 1.667049382425763E9, 0.0, 2022-10-29 15:16:22.425
67.0, 873.704207948409, -1295.6453307992779, -720.3832693649456, 874.7046311865561, 0.0, 0.01600000075995922, 0.9920000471174717, 0.0, 0.0, 0.0, 0.0, 0.0, 1.6670493824393375E9, 0.0, 2022-10-29 15:16:22.439
67.0, 945.3550812494941, -1444.3718022871763, -896.7363818255253, 960.600783418864, 0.0, 0.01600000075995922, 0.9920000471174717, 0.0, 0.0, 0.0, 0.0, 0.0, 1.6670493824393375E9, 0.0, 2022-10-29 15:16:22.439
68.0, 947.7149581215344, -1462.4336491231807, -914.1961047686636, 960.9822532143444, 0.0, 0.01600000075995922, 0.9920000471174717, 0.0, 0.0, 0.0, 0.0, 0.0, 1.6670493824550936E9, 0.0, 2022-10-29 15:16:22.455
68.0, 927.1174591155723, -1500.5020907721482, -943.5057007214054, 930.8442694214173, 0.0, 0.01600000075995922, 0.9920000471174717, 0.0, 0.0, 0.0, 0.0, 0.0, 1.6670493824550936E9, 0.0, 2022-10-29 15:16:22.455
69.0, 879.7329266769812, -1293.2050460781902, -730.0116418008693, 891.698736585211, 0.0, 0.01600000075995922, 0.9920000471174717, 0.0, 0.0, 0.0, 0.0, 0.0, 1.6670493824558618E9, 0.0, 2022-10-29 15:16:22.455
69.0, 934.7300254753791, -1439.8296937909909, -889.6885403590277, 946.2096483893692, 0.0, 0.01600000075995922, 0.9920000471174717, 0.0, 0.0, 0.0, 0.0, 0.0, 1.6670493824558618E9, 0.0, 2022-10-29 15:16:22.455
70.0, 941.7236383925192, -1461.7847764808685, -919.1645618597977, 950.2076014420018, 0.0, 0.01600000075995922, 1.008000047877431, 0.0, 0.0, 0.0, 0.0, 0.0, 1.667049382469316E9, 0.0, 2022-10-29 15:16:22.469
70.0, 941.6245310436934, -1501.2220215136185, -931.0312644192018, 951.5951043255627, 0.0, 0.01600000075995922, 1.008000047877431, 0.0, 0.0, 0.0, 0.0, 0.0, 1.667049382469316E9, 0.0, 2022-10-29 15:16:22.469
71.0, 904.7229381809011, -1283.9057848383673, -707.3796372190118, 908.5002371361479, 0.0, 0.01600000075995922, 1.008000047877431, 0.0, 0.0, 0.0, 0.0, 0.0, 1.6670493824851296E9, 0.0, 2022-10-29 15:16:22.485
71.0, 935.3134498684667, -1441.9969658153132, -898.946662699338, 947.1913721277378, 0.0, 0.01600000075995922, 1.008000047877431, 0.0, 0.0, 0.0, 0.0, 0.0, 1.6670493824851296E9, 0.0, 2022-10-29 15:16:22.485
72.0, 941.9891712893732, -1485.4265540507622, -922.0872936751693, 951.8550273724832, 0.0, 0.01600000075995922, 1.008000047877431, 0.0, 0.0, 0.0, 0.0, 0.0, 1.667049382485779E9, 0.0, 2022-10-29 15:16:22.485
72.0, 941.9536422397941, -1523.094826404471, -933.090079344809, 951.0902178315446, 0.0, 0.01600000075995922, 1.008000047877431, 0.0, 0.0, 0.0, 0.0, 0.0, 1.667049382485779E9, 0.0, 2022-10-29 15:16:22.485
73.0, 884.2133268238977, -1285.429794070311, -714.9099257797934, 897.2767973691225, 0.0, 0.01600000075995922, 1.008000047877431, 0.0, 0.0, 0.0, 0.0, 0.0, 1.6670493824994228E9, 0.0, 2022-10-29 15:16:22.499
73.0, 933.2901639924385, -1437.8064079149626, -890.9675861438736, 938.6569204288535, 0.0, 0.01600000075995922, 1.008000047877431, 0.0, 0.0, 0.0, 0.0, 0.0, 1.6670493824994228E9, 0.0, 2022-10-29 15:16:22.499
74.0, 963.8077476308681, -1457.629747630097, -912.3280247407965, 970.4460700522177, 0.0, 0.01600000075995922, 1.008000047877431, 0.0, 0.0, 0.0, 0.0, 0.0, 1.6670493825150912E9, 0.0, 2022-10-29 15:16:22.515
74.0, 952.4440616155043, -1490.7278622379526, -929.0191982430406, 955.6603755773976, 0.0, 0.01600000075995922, 1.008000047877431, 0.0, 0.0, 0.0, 0.0, 0.0, 1.6670493825150912E9, 0.0, 2022-10-29 15:16:22.515
75.0, 892.2092329291627, -1272.7384435706772, -701.9829615829512, 899.7376515399665, 0.0, 0.01600000075995922, 1.008000047877431, 0.0, 0.0, 0.0, 0.0, 0.0, 1.6670493825158496E9, 0.0, 2022-10-29 15:16:22.515
75.0, 929.1313952417113, -1443.3994282986969, -891.2349889907055, 934.2400985811837, 0.0, 0.01600000075995922, 1.008000047877431, 0.0, 0.0, 0.0, 0.0, 0.0, 1.6670493825158496E9, 0.0, 2022-10-29 15:16:22.515
76.0, 960.7410296672024, -1457.942029276397, -904.4237461844459, 968.9800292695872, 0.0, 0.01600000075995922, 1.008000047877431, 0.0, 0.0, 0.0, 0.0, 0.0, 1.6670493825293622E9, 0.0, 2022-10-29 15:16:22.529
76.0, 952.5151197146624, -1511.830247737933, -931.9194906586781, 958.297005046159, 0.0, 0.01600000075995922, 1.008000047877431, 0.0, 0.0, 0.0, 0.0, 0.0, 1.6670493825293622E9, 0.0, 2022-10-29 15:16:22.529
77.0, 895.3544887918979, -1282.871702500619, -705.1787060950883, 909.6296869227663, 0.0, 0.01600000075995922, 1.008000047877431, 0.0, 0.0, 0.0, 0.0, 0.0, 1.6670493825450923E9, 0.0, 2022-10-29 15:16:22.545
77.0, 927.3773821624927, -1419.7426911289804, -886.8013375932351, 937.5873090415262, 0.0, 0.01600000075995922, 1.008000047877431, 0.0, 0.0, 0.0, 0.0, 0.0, 1.6670493825450923E9, 0.0, 2022-10-29 15:16:22.545
78.0, 970.4273705524392, -1441.5967965200543, -898.512834304478, 974.1223917086609, 0.0, 0.01600000075995922, 1.008000047877431, 0.0, 0.0, 0.0, 0.0, 0.0, 1.667049382545794E9, 0.0, 2022-10-29 15:16:22.545
78.0, 972.7236691252328, -1471.8787664612755, -905.8467781175859, 973.7203524634242, 0.0, 0.01600000075995922, 1.008000047877431, 0.0, 0.0, 0.0, 0.0, 0.0, 1.667049382545794E9, 0.0, 2022-10-29 15:16:22.545
79.0, 895.7453083372675, -1263.0595824853517, -698.8077865205705, 908.0402294415981, 0.0, 0.01600000075995922, 1.008000047877431, 0.0, 0.0, 0.0, 0.0, 0.0, 1.6670493825593321E9, 0.0, 2022-10-29 15:16:22.559
79.0, 943.0456930268556, -1400.6523718051612, -859.3934807679616, 946.5518492353149, 0.0, 0.01600000075995922, 1.008000047877431, 0.0, 0.0, 0.0, 0.0, 0.0, 1.6670493825593321E9, 0.0, 2022-10-29 15:16:22.559
80.0, 985.3140423260629, -1430.663198999595, -893.3611221155152, 999.6322493064217, 0.0, 0.01600000075995922, 0.9920000471174717, 0.0, 0.0, 0.0, 0.0, 0.0, 1.6670493825750391E9, 0.0, 2022-10-29 15:16:22.575
80.0, 966.9941423931159, -1475.755172765348, -919.0392752112821, 973.9335267608985, 0.0, 0.01600000075995922, 0.9920000471174717, 0.0, 0.0, 0.0, 0.0, 0.0, 1.6670493825750391E9, 0.0, 2022-10-29 15:16:22.575
81.0, 907.3165588001721, -1267.8485243786126, -698.9031539694406, 916.0211759470403, 0.0, 0.01600000075995922, 0.9920000471174717, 0.0, 0.0, 0.0, 0.0, 0.0, 1.6670493825758042E9, 0.0, 2022-10-29 15:16:22.575
81.0, 918.1977977212518, -1423.232017787639, -874.138036343269, 926.1058161775582, 0.0, 0.01600000075995922, 0.9920000471174717, 0.0, 0.0, 0.0, 0.0, 0.0, 1.6670493825758042E9, 0.0, 2022-10-29 15:16:22.575
82.0, 974.0868626590818, -1454.5630296664312, -913.9586211214773, 984.4706948860548, 0.0, 0.01600000075995922, 0.9920000471174717, 0.0, 0.0, 0.0, 0.0, 0.0, 1.6670493825893817E9, 0.0, 2022-10-29 15:16:22.589
82.0, 942.6773128812201, -1509.1693089194596, -926.7528188698925, 950.3384979404509, 0.0, 0.01600000075995922, 0.9920000471174717, 0.0, 0.0, 0.0, 0.0, 0.0, 1.6670493825893817E9, 0.0, 2022-10-29 15:16:22.589
83.0, 904.13390393788, -1745.7254609167576, -689.0616072360426, 907.7335576452315, 0.0, 0.01600000075995922, 0.9920000471174717, 0.0, 0.0, 0.0, 0.0, 0.0, 1.6670493826050632E9, 0.0, 2022-10-29 15:16:22.605
83.0, 943.5393598210067, -1890.4764187517576, -861.9440925377421, 952.7713028616272, 0.0, 0.01600000075995922, 0.9920000471174717, 0.0, 0.0, 0.0, 0.0, 0.0, 1.6670493826050632E9, 0.0, 2022-10-29 15:16:22.605
84.0, 977.5163509184495, -1924.62731519714, -896.2109258817509, 985.5290865735151, 0.0, 0.01600000075995922, 0.9920000471174717, 0.0, 0.0, 0.0, 0.0, 0.0, 1.667049382605958E9, 0.0, 2022-10-29 15:16:22.605
84.0, 959.5629611811601, -1964.6592043228447, -911.3350813025609, 973.9484863607213, 0.0, 0.01600000075995922, 0.9920000471174717, 0.0, 0.0, 0.0, 0.0, 0.0, 1.667049382605958E9, 0.0, 2022-10-29 15:16:22.605
85.0, 900.39400398219, -1749.1792585258372, -701.0909954435192, 907.015496853739, 0.0, 0.01600000075995922, 0.9920000471174717, 0.0, 0.0, 0.0, 0.0, 0.0, 1.6670493826193724E9, 0.0, 2022-10-29 15:16:22.619
85.0, 930.3711720770225, -1912.8354106368497, -877.997613097541, 936.4765587546863, 0.0, 0.01600000075995922, 0.9920000471174717, 0.0, 0.0, 0.0, 0.0, 0.0, 1.6670493826193724E9, 0.0, 2022-10-29 15:16:22.619
86.0, 969.4456468140706, -1930.7514013745822, -902.8099793535657, 976.7926802770235, 0.0, 0.01600000075995922, 0.9920000471174717, 0.0, 0.0, 0.0, 0.0, 0.0, 1.6670493826351311E9, 0.0, 2022-10-29 15:16:22.635
86.0, 968.9837691695429, -1961.5120785101317, -911.5052467505448, 977.4883016687818, 0.0, 0.01600000075995922, 0.9920000471174717, 0.0, 0.0, 0.0, 0.0, 0.0, 1.6670493826351311E9, 0.0, 2022-10-29 15:16:22.635
87.0, 902.8436384531669, -1747.023206201382, -692.603292494081, 911.9465549453162, 0.0, 0.01600000075995922, 0.9920000471174717, 0.0, 0.0, 0.0, 0.0, 0.0, 1.6670493826357477E9, 0.0, 2022-10-29 15:16:22.635
87.0, 929.9373436821625, -1914.9989427612163, -874.7943887854926, 945.0128804035485, 0.0, 0.01600000075995922, 0.9920000471174717, 0.0, 0.0, 0.0, 0.0, 0.0, 1.6670493826357477E9, 0.0, 2022-10-29 15:16:22.635
88.0, 966.7566587459296, -1938.580881931819, -910.0485557178035, 973.7240923633799, 0.0, 0.01600000075995922, 0.9920000471174717, 0.0, 0.0, 0.0, 0.0, 0.0, 1.6670493826493547E9, 0.0, 2022-10-29 15:16:22.649
88.0, 949.951418295037, -1979.7123016444966, -927.5475476104766, 958.7476629908197, 0.0, 0.01600000075995922, 0.9920000471174717, 0.0, 0.0, 0.0, 0.0, 0.0, 1.6670493826493547E9, 0.0, 2022-10-29 15:16:22.649
89.0, 892.4429766763933, -1759.1236525080167, -706.1062012840994, 902.8249389533885, 0.0, 0.01600000075995922, 0.9920000471174717, 0.0, 0.0, 0.0, 0.0, 0.0, 1.6670493826648197E9, 0.0, 2022-10-29 15:16:22.664
89.0, 928.3591059008613, -1918.8790889652446, -880.9857931621373, 935.7977669127285, 0.0, 0.01600000075995922, 0.9920000471174717, 0.0, 0.0, 0.0, 0.0, 0.0, 1.6670493826648197E9, 0.0, 2022-10-29 15:16:22.664
90.0, 965.0138653665781, -1944.1140639162622, -910.6114106611349, 976.0540500357747, 0.0, 0.01600000075995922, 0.9920000471174717, 0.0, 0.0, 0.0, 0.0, 0.0, 1.6670493826800804E9, 0.0, 2022-10-29 15:16:22.680
90.0, 952.206577968318, -1972.2081923834048, -919.2430997588672, 956.6981978151016, 0.0, 0.01600000075995922, 0.9920000471174717, 0.0, 0.0, 0.0, 0.0, 0.0, 1.6670493826800804E9, 0.0, 2022-10-29 15:16:22.680
91.0, 891.5341809871607, -1755.7820518976077, -714.541545634158, 898.0490867099725, 0.0, 0.01600000075995922, 0.9920000471174717, 0.0, 0.0, 0.0, 0.0, 0.0, 1.6670493826807847E9, 0.0, 2022-10-29 15:16:22.680
91.0, 912.1952582923695, -1930.7813205742277, -905.1137577262707, 917.2366434326395, 0.0, 0.01600000075995922, 0.9920000471174717, 0.0, 0.0, 0.0, 0.0, 0.0, 1.6670493826807847E9, 0.0, 2022-10-29 15:16:22.680
92.0, 963.603923083283, -1968.6197583759204, -921.8105410784483, 969.5391443129629, 0.0, 0.01600000075995922, 0.9920000471174717, 0.0, 0.0, 0.0, 0.0, 0.0, 1.6670493826950788E9, 0.0, 2022-10-29 15:16:22.695
92.0, 938.8065164270811, -2006.8751950226724, -946.067532191053, 949.154819604475, 0.0, 0.01600000075995922, 0.9920000471174717, 0.0, 0.0, 0.0, 0.0, 0.0, 1.6670493826950788E9, 0.0, 2022-10-29 15:16:22.695
93.0, 866.0243233893998, -1790.8043450326659, -733.246655262541, 871.7837693211623, 0.0, 0.01600000075995922, 0.9920000471174717, 0.0, 0.0, 0.0, 0.0, 0.0, 1.6670493826957934E9, 0.0, 2022-10-29 15:16:22.695
93.0, 912.3261547908187, -1953.3609665567055, -908.8817069316283, 924.8510797424242, 0.0, 0.01600000075995922, 0.9920000471174717, 0.0, 0.0, 0.0, 0.0, 0.0, 1.6670493826957934E9, 0.0, 2022-10-29 15:16:22.695
94.0, 953.1845618067309, -1975.1888926480897, -928.9892790433951, 966.3228303510696, 0.0, 0.01600000075995922, 0.9920000471174717, 0.0, 0.0, 0.0, 0.0, 0.0, 1.6670493827093773E9, 0.0, 2022-10-29 15:16:22.709
94.0, 945.4074398488738, -1994.4680769196711, -946.4097330369987, 942.5912951822393, 0.0, 0.01600000075995922, 0.9920000471174717, 0.0, 0.0, 0.0, 0.0, 0.0, 1.6670493827093773E9, 0.0, 2022-10-29 15:16:22.709
95.0, 871.7949890210293, -1789.40375249926, -730.9036079403013, 875.1833383808844, 0.0, 0.01600000075995922, 0.9920000471174717, 0.0, 0.0, 0.0, 0.0, 0.0, 1.667049382725603E9, 0.0, 2022-10-29 15:16:22.725
95.0, 903.6982055930421, -1952.390462518204, -914.5607450143434, 906.7424841569737, 0.0, 0.01600000075995922, 0.9920000471174717, 0.0, 0.0, 0.0, 0.0, 0.0, 1.667049382725603E9, 0.0, 2022-10-29 15:16:22.725
96.0, 964.3893020739779, -1961.7794813569635, -926.0740270279348, 971.925200484693, 0.0, 0.01600000075995922, 0.9920000471174717, 0.0, 0.0, 0.0, 0.0, 0.0, 1.667049382740085E9, 0.0, 2022-10-29 15:16:22.740
96.0, 945.7141116452403, -1999.6534482082352, -954.6094636898488, 950.9985902826302, 0.0, 0.01600000075995922, 0.9920000471174717, 0.0, 0.0, 0.0, 0.0, 0.0, 1.667049382740085E9, 0.0, 2022-10-29 15:16:22.740
97.0, 879.1812914335169, -1787.5244527715258, -741.182722968515, 889.8250467074104, 0.0, 0.01600000075995922, 0.9920000471174717, 0.0, 0.0, 0.0, 0.0, 0.0, 1.667049382740795E9, 0.0, 2022-10-29 15:16:22.740
97.0, 904.1469935877249, -1944.6918784594163, -920.8306872900575, 900.1864395346493, 0.0, 0.01600000075995922, 0.9920000471174717, 0.0, 0.0, 0.0, 0.0, 0.0, 1.667049382740795E9, 0.0, 2022-10-29 15:16:22.740
98.0, 960.226793423295, -1981.9468918680213, -946.7201447333209, 967.1792674409226, 0.0, 0.01600000075995922, 0.9920000471174717, 0.0, 0.0, 0.0, 0.0, 0.0, 1.667049382755142E9, 0.0, 2022-10-29 15:16:22.755
98.0, 935.1227149707265, -2016.6531634568237, -959.5218222816475, 943.1934190751053, 0.0, 0.01600000075995922, 0.9920000471174717, 0.0, 0.0, 0.0, 0.0, 0.0, 1.667049382755142E9, 0.0, 2022-10-29 15:16:22.755
99.0, 876.406285666395, -2260.947168462444, -734.3106567999348, 888.7255161204375, 0.0, 0.01600000075995922, 0.9920000471174717, 0.0, 0.0, 0.0, 0.0, 0.0, 1.667049382755758E9, 0.0, 2022-10-29 15:16:22.755
99.0, 916.2156507447362, -2411.8801809241995, -911.116297155153, 919.3309874078259, 0.0, 0.01600000075995922, 0.9920000471174717, 0.0, 0.0, 0.0, 0.0, 0.0, 1.667049382755758E9, 0.0, 2022-10-29 15:16:22.755
100.0, 966.9436537437141, -2448.8434821362607, -934.6720570260659, 976.1849465342239, 0.0, 0.01600000075995922, 0.9920000471174717, 0.0, 0.0, 0.0, 0.0, 0.0, 1.6670493827700396E9, 0.0, 2022-10-29 15:16:22.770
100.0, 937.3703948440962, -2502.9860137947835, -963.5066856844351, 942.8867472787388, 0.0, 0.01600000075995922, 0.9920000471174717, 0.0, 0.0, 0.0, 0.0, 0.0, 1.6670493827700396E9, 0.0, 2022-10-29 15:16:22.770
0.0, -104.89671395719051, -1285.1829606732354, -1218.5603828625754, -97.82269319100305, 0.0, 0.01600000075995922, 0.9920000471174717, 0.0, 0.0, 0.0, 0.0, 0.0, 1.6670493827707798E9, 0.0, 2022-10-29 15:16:22.770
1.0, -76.39306644489989, -1443.2330027506687, -1388.8099785954691, -69.79401297308505, 0.0, 0.03200000151991844, 0.9920000471174717, 0.0, 0.0, 0.0, 0.0, 0.0, 1.6670493827843776E9, 0.0, 2022-10-29 15:16:22.784
1.0, -9.08608694234863, -1469.7096244869754, -1431.2634529424831, 10.677414373494685, 0.0, 0.03200000151991844, 0.9920000471174717, 0.0, 0.0, 0.0, 0.0, 0.0, 1.6670493827843776E9, 0.0, 2022-10-29 15:16:22.784
2.0, -41.3520738100633, -1537.121321188286, -1456.5638761427253, -35.15318963350728, 0.0, 0.03200000151991844, 0.9920000471174717, 0.0, 0.0, 0.0, 0.0, 0.0, 1.6670493828000844E9, 0.0, 2022-10-29 15:16:22.800
2.0, -174.6383683308959, -1778.9769114227965, -1693.389300936833, -172.08214671118185, 0.0, 0.03200000151991844, 0.9920000471174717, 0.0, 0.0, 0.0, 0.0, 0.0, 1.6670493828000844E9, 0.0, 2022-10-29 15:16:22.800
3.0, -63.92050009267405, -1862.539366082754, -1821.6884388667531, -55.48141584265977, 0.0, 0.03200000151991844, 0.9920000471174717, 0.0, 0.0, 0.0, 0.0, 0.0, 1.6670493828008115E9, 0.0, 2022-10-29 15:16:22.800
3.0, 25.9941746420227, -1962.9575498430058, -1928.8683617468923, 29.31707575265318, 0.0, 0.03200000151991844, 0.9920000471174717, 0.0, 0.0, 0.0, 0.0, 0.0, 1.6670493828008115E9, 0.0, 2022-10-29 15:16:22.800
4.0, -28.14274716656655, -2015.660220018588, -1942.489077385515, -20.993928401265293, 0.0, 0.03200000151991844, 0.9920000471174717, 0.0, 0.0, 0.0, 0.0, 0.0, 1.667049382814487E9, 0.0, 2022-10-29 15:16:22.814
4.0, -109.07792210765183, -1796.73582636239, -1722.7194663393311, -90.45509027829394, 0.0, 0.03200000151991844, 0.9920000471174717, 0.0, 0.0, 0.0, 0.0, 0.0, 1.667049382814487E9, 0.0, 2022-10-29 15:16:22.814
5.0, -73.49090407928452, -1941.7822362938896, -1891.3384656915441, -52.75876867491752, 0.0, 0.03200000151991844, 0.9920000471174717, 0.0, 0.0, 0.0, 0.0, 0.0, 1.667049382830067E9, 0.0, 2022-10-29 15:16:22.830
5.0, -14.594959577079862, -1971.4377729925327, -1927.1760570169427, -9.308610989712179, 0.0, 0.03200000151991844, 0.9920000471174717, 0.0, 0.0, 0.0, 0.0, 0.0, 1.667049382830067E9, 0.0, 2022-10-29 15:16:22.830
6.0, -39.227810635231435, -2021.81048549572, -1947.0386656816117, -33.87040394870564, 0.0, 0.03200000151991844, 0.9920000471174717, 0.0, 0.0, 0.0, 0.0, 0.0, 1.6670493828308384E9, 0.0, 2022-10-29 15:16:22.830
6.0, -105.29688325244933, -1784.156672861427, -1711.3856995236129, -100.22744886251166, 0.0, 0.03200000151991844, 0.9920000471174717, 0.0, 0.0, 0.0, 0.0, 0.0, 1.6670493828308384E9, 0.0, 2022-10-29 15:16:22.830
7.0, -73.54700257861987, -1936.6380039048381, -1893.5917554148473, -62.07485946454108, 0.0, 0.03200000151991844, 0.9920000471174717, 0.0, 0.0, 0.0, 0.0, 0.0, 1.6670493828445294E9, 0.0, 2022-10-29 15:16:22.844
7.0, -11.84613310964778, -1979.5963647458702, -1924.7806510953233, -0.5123662939295173, 0.0, 0.03200000151991844, 0.9920000471174717, 0.0, 0.0, 0.0, 0.0, 0.0, 1.6670493828445294E9, 0.0, 2022-10-29 15:16:22.844
8.0, -40.450757920742035, -2025.6083539007232, -1938.7529173297808, -40.95751436473802, 0.0, 0.03200000151991844, 0.9920000471174717, 0.0, 0.0, 0.0, 0.0, 0.0, 1.6670493828601198E9, 0.0, 2022-10-29 15:16:22.860
8.0, -121.46073086094111, -1804.6307551688515, -1716.8328638090752, -116.42121567064896, 0.0, 0.03200000151991844, 0.9920000471174717, 0.0, 0.0, 0.0, 0.0, 0.0, 1.6670493828601198E9, 0.0, 2022-10-29 15:16:22.860
9.0, -76.65485944179818, -1922.1141024269164, -1880.739589217119, -72.50544044096023, 0.0, 0.03200000151991844, 0.9920000471174717, 0.0, 0.0, 0.0, 0.0, 0.0, 1.6670493828608575E9, 0.0, 2022-10-29 15:16:22.860
9.0, -8.932751044165343, -1972.3465686817653, -1931.5891389646567, 0.8377375900745392, 0.0, 0.03200000151991844, 0.9920000471174717, 0.0, 0.0, 0.0, 0.0, 0.0, 1.6670493828608575E9, 0.0, 2022-10-29 15:16:22.860
10.0, -45.48840316105634, -2013.0965185989626, -1951.728500226047, -40.01879947585985, 0.0, 0.03200000151991844, 0.9920000471174717, 0.0, 0.0, 0.0, 0.0, 0.0, 1.667049382874466E9, 0.0, 2022-10-29 15:16:22.874
10.0, -108.18408601824194, -1784.6839987551793, -1711.8232678184286, -107.32203907845542, 0.0, 0.03200000151991844, 0.9920000471174717, 0.0, 0.0, 0.0, 0.0, 0.0, 1.667049382874466E9, 0.0, 2022-10-29 15:16:22.874
11.0, -74.59417456621304, -1950.314818042796, -1879.241759284865, -66.56647931132466, 0.0, 0.03200000151991844, 0.9920000471174717, 0.0, 0.0, 0.0, 0.0, 0.0, 1.667049382890032E9, 0.0, 2022-10-29 15:16:22.890
11.0, -3.7941285050474107, -1978.657649856992, -1926.242951977998, -3.695021156221628, 0.0, 0.03200000151991844, 0.9920000471174717, 0.0, 0.0, 0.0, 0.0, 0.0, 1.667049382890032E9, 0.0, 2022-10-29 15:16:22.890
12.0, -39.52700263168663, -2012.8328556520864, -1947.1377730304375, -33.346817954909056, 0.0, 0.03200000151991844, 0.9920000471174717, 0.0, 0.0, 0.0, 0.0, 0.0, 1.6670493828907182E9, 0.0, 2022-10-29 15:16:22.890
12.0, -113.77149655204266, -1771.9926482555456, -1709.573717995081, -115.07859158655629, 0.0, 0.03200000151991844, 0.9920000471174717, 0.0, 0.0, 0.0, 0.0, 0.0, 1.6670493828907182E9, 0.0, 2022-10-29 15:16:22.890
13.0, -68.51683713821694, -1916.4331943942234, -1873.405645404011, -64.54319343529642, 0.0, 0.03200000151991844, 0.9920000471174717, 0.0, 0.0, 0.0, 0.0, 0.0, 1.667049382904344E9, 0.0, 2022-10-29 15:16:22.904
13.0, 2.2345902235247195, -1958.168607949745, -1918.1554183238186, 6.02871872857213, 0.0, 0.03200000151991844, 0.9920000471174717, 0.0, 0.0, 0.0, 0.0, 0.0, 1.667049382904344E9, 0.0, 2022-10-29 15:16:22.904
14.0, -38.853820639662445, -2006.7648679739796, -1936.073279011529, -30.179122692439705, 0.0, 0.03200000151991844, 0.9920000471174717, 0.0, 0.0, 0.0, 0.0, 0.0, 1.6670493829200397E9, 0.0, 2022-10-29 15:16:22.920
14.0, -119.84883398003876, -1795.735403124243, -1714.1532254908234, -115.72185437893495, 0.0, 0.03200000151991844, 0.9920000471174717, 0.0, 0.0, 0.0, 0.0, 0.0, 1.6670493829200397E9, 0.0, 2022-10-29 15:16:22.920
15.0, -81.2437166874297, -1954.2304932964034, -1882.8881617416628, -67.62861089874059, 0.0, 0.03200000151991844, 0.9920000471174717, 0.0, 0.0, 0.0, 0.0, 0.0, 1.6670493829207344E9, 0.0, 2022-10-29 15:16:22.920
15.0, -4.411211997736245, -1966.0280077066272, -1921.287584536709, -0.6956213917583227, 0.0, 0.03200000151991844, 0.9920000471174717, 0.0, 0.0, 0.0, 0.0, 0.0, 1.6670493829207344E9, 0.0, 2022-10-29 15:16:22.920
16.0, -41.50914960820228, -2004.9341869456694, -1934.7250450775027, -30.467094989027828, 0.0, 0.03200000151991844, 0.9920000471174717, 0.0, 0.0, 0.0, 0.0, 0.0, 1.667049382934408E9, 0.0, 2022-10-29 15:16:22.934
16.0, -117.0177297135815, -1771.6672769594006, -1714.7160804341547, -110.54583284026012, 0.0, 0.03200000151991844, 0.9920000471174717, 0.0, 0.0, 0.0, 0.0, 0.0, 1.667049382934408E9, 0.0, 2022-10-29 15:16:22.934
17.0, -74.30620226962492, -1927.8511089589447, -1873.839473798871, -60.70231618080288, 0.0, 0.03200000151991844, 0.9920000471174717, 0.0, 0.0, 0.0, 0.0, 0.0, 1.6670493829500914E9, 0.0, 2022-10-29 15:16:22.950
17.0, -2.0700346254743636, -1966.7928172475658, -1911.408638803754, 2.9545209649950266, 0.0, 0.03200000151991844, 0.9920000471174717, 0.0, 0.0, 0.0, 0.0, 0.0, 1.6670493829500914E9, 0.0, 2022-10-29 15:16:22.950
18.0, -46.28874175157398, -2012.3260992080905, -1936.5968650053255, -38.97910728817806, 0.0, 0.03200000151991844, 0.9920000471174717, 0.0, 0.0, 0.0, 0.0, 0.0, 1.6670493829507248E9, 0.0, 2022-10-29 15:16:22.950
18.0, -111.76317027583718, -1773.3857609890401, -1707.9674309641123, -103.23432842688635, 0.0, 0.03200000151991844, 0.9920000471174717, 0.0, 0.0, 0.0, 0.0, 0.0, 1.6670493829507248E9, 0.0, 2022-10-29 15:16:22.950
19.0, -73.87985367467627, -1922.2169496756978, -1875.456980529707, -63.331465849652886, 0.0, 0.03200000151991844, 0.9920000471174717, 0.0, 0.0, 0.0, 0.0, 0.0, 1.6670493829643965E9, 0.0, 2022-10-29 15:16:22.964
19.0, -0.21130434749647975, -1976.970954976976, -1931.4077538168058, 1.0808310871943831, 0.0, 0.03200000151991844, 0.9920000471174717, 0.0, 0.0, 0.0, 0.0, 0.0, 1.6670493829643965E9, 0.0, 2022-10-29 15:16:22.964
20.0, -42.100053801201284, -2020.1294004656374, -1947.8221747223288, -46.02507880469784, 0.0, 0.03200000151991844, 0.9920000471174717, 0.0, 0.0, 0.0, 0.0, 0.0, 1.6670493829800556E9, 0.0, 2022-10-29 15:16:22.980
20.0, -115.67510562948883, -1777.090131895151, -1710.3403974859975, -105.35859160171822, 0.0, 0.03200000151991844, 0.9920000471174717, 0.0, 0.0, 0.0, 0.0, 0.0, 1.6670493829800556E9, 0.0, 2022-10-29 15:16:22.980
21.0, -88.03537500696257, -1939.0932482257485, -1885.0180347664282, -80.00393985211849, 0.0, 0.01600000075995922, 0.9920000471174717, 0.0, 0.0, 0.0, 0.0, 0.0, 1.6670493829808102E9, 0.0, 2022-10-29 15:16:22.980
21.0, 5.0507348901592195, -1972.182013083715, -1927.9876153073274, 10.153828379698098, 0.0, 0.01600000075995922, 0.9920000471174717, 0.0, 0.0, 0.0, 0.0, 0.0, 1.6670493829808102E9, 0.0, 2022-10-29 15:16:22.980
22.0, -45.297668263316154, -2013.851978390012, -1946.0849911929108, -42.41981524741277, 0.0, 0.01600000075995922, 0.9920000471174717, 0.0, 0.0, 0.0, 0.0, 0.0, 1.6670493829943347E9, 0.0, 2022-10-29 15:16:22.994
22.0, -115.96307792607695, -1769.2045528385788, -1708.2554032607004, -105.4408694007434, 0.0, 0.01600000075995922, 0.9920000471174717, 0.0, 0.0, 0.0, 0.0, 0.0, 1.6670493829943347E9, 0.0, 2022-10-29 15:16:22.994
23.0, -80.51817609602585, -1929.752848086413, -1873.3364572548307, -69.65937657468021, 0.0, 0.01600000075995922, 0.9920000471174717, 0.0, 0.0, 0.0, 0.0, 0.0, 1.6670493830100272E9, 0.0, 2022-10-29 15:16:23.010
23.0, 10.316514027770609, -1965.6502778111026, -1919.0698238629848, 21.964432439766824, 0.0, 0.01600000075995922, 0.9920000471174717, 0.0, 0.0, 0.0, 0.0, 0.0, 1.6670493830100272E9, 0.0, 2022-10-29 15:16:23.010
24.0, -46.19898415263742, -2023.7384039228782, -1947.313548328355, -35.830111525487155, 0.0, 0.01600000075995922, 0.9920000471174717, 0.0, 0.0, 0.0, 0.0, 0.0, 1.6670493830107644E9, 0.0, 2022-10-29 15:16:23.010
24.0, -124.97249691933393, -1820.4767112811096, -1722.5586506412365, -126.34317025309429, 0.0, 0.01600000075995922, 0.9920000471174717, 0.0, 0.0, 0.0, 0.0, 0.0, 1.6670493830107644E9, 0.0, 2022-10-29 15:16:23.010
25.0, -79.22791061131284, -1896.0769189354032, -1860.596488055773, -74.93263551220298, 0.0, 0.01600000075995922, 0.9920000471174717, 0.0, 0.0, 0.0, 0.0, 0.0, 1.6670493830243404E9, 0.0, 2022-10-29 15:16:23.024
25.0, 19.303493621293455, -1939.4653682713397, -1912.2127172942273, 25.01993070356548, 0.0, 0.01600000075995922, 0.9920000471174717, 0.0, 0.0, 0.0, 0.0, 0.0, 1.6670493830243404E9, 0.0, 2022-10-29 15:16:23.024
26.0, -34.09666789602488, -2004.0497006061487, -1941.1483232514001, -32.42306266585365, 0.0, 0.01600000075995922, 0.9920000471174717, 0.0, 0.0, 0.0, 0.0, 0.0, 1.6670493830400171E9, 0.0, 2022-10-29 15:16:23.040
26.0, -114.0145900491625, -1763.2506321091205, -2184.365237069782, -105.4745285003446, 0.0, 0.01600000075995922, 0.9920000471174717, 0.0, 0.0, 0.0, 0.0, 0.0, 1.6670493830400171E9, 0.0, 2022-10-29 15:16:23.040
27.0, -72.4998305910267, -1915.3056145575829, -2347.1612121909857, -66.83949200809002, 0.0, 0.01600000075995922, 0.9920000471174717, 0.0, 0.0, 0.0, 0.0, 0.0, 1.667049383040848E9, 0.0, 2022-10-29 15:16:23.040
27.0, 15.746848763432354, -1968.660897275433, -2416.2315545226447, 26.242877989076078, 0.0, 0.01600000075995922, 0.9920000471174717, 0.0, 0.0, 0.0, 0.0, 0.0, 1.667049383040848E9, 0.0, 2022-10-29 15:16:23.040
28.0, -45.97085025534034, -2010.6824131775647, -2441.2477453262545, -38.87439008941874, 0.0, 0.01600000075995922, 0.9920000471174717, 0.0, 0.0, 0.0, 0.0, 0.0, 1.667049383054468E9, 0.0, 2022-10-29 15:16:23.054
28.0, -126.75642919819802, -1781.6902088406496, -2205.927630264312, -117.54318565735593, 0.0, 0.01600000075995922, 0.9920000471174717, 0.0, 0.0, 0.0, 0.0, 0.0, 1.667049383054468E9, 0.0, 2022-10-29 15:16:23.054
29.0, -83.75692945765331, -1907.4387350007892, -2369.191092879977, -65.03686022944748, 0.0, 0.01600000075995922, 0.9920000471174717, 0.0, 0.0, 0.0, 0.0, 0.0, 1.6670493830700233E9, 0.0, 2022-10-29 15:16:23.070
29.0, 15.275621369015425, -1953.9387810998596, -2422.1349866027012, 27.899653669446707, 0.0, 0.01600000075995922, 0.9920000471174717, 0.0, 0.0, 0.0, 0.0, 0.0, 1.6670493830700233E9, 0.0, 2022-10-29 15:16:23.070
30.0, -42.60868019517511, -2004.4274305016734, -2446.9305233089253, -34.72684103855863, 0.0, 0.01600000075995922, 0.9920000471174717, 0.0, 0.0, 0.0, 0.0, 0.0, 1.6670493830708413E9, 0.0, 2022-10-29 15:16:23.070
30.0, -122.30968815088272, -1765.0831830874085, -2204.1119088358246, -115.0374526870437, 0.0, 0.01600000075995922, 0.9920000471174717, 0.0, 0.0, 0.0, 0.0, 0.0, 1.6670493830708413E9, 0.0, 2022-10-29 15:16:23.070
31.0, -86.43843772588298, -1919.5915399068035, -2369.783867022954, -78.12277017440647, 0.0, 0.03200000151991844, 0.9920000471174717, 0.0, 0.0, 0.0, 0.0, 0.0, 1.667049383084472E9, 0.0, 2022-10-29 15:16:23.084
31.0, 11.277668316382915, -1991.9268148997799, -2418.9130627908744, 17.035244298167527, 0.0, 0.03200000151991844, 0.9920000471174717, 0.0, 0.0, 0.0, 0.0, 0.0, 1.667049383084472E9, 0.0, 2022-10-29 15:16:23.084
32.0, -46.71135044656694, -2006.3216898292303, -2438.154848062899, -40.92011536518112, 0.0, 0.03200000151991844, 0.9920000471174717, 0.0, 0.0, 0.0, 0.0, 0.0, 1.6670493830999916E9, 0.0, 2022-10-29 15:16:23.099
32.0, -119.2766292868182, -2246.292370486073, -2196.8546329718083, -118.23880704911426, 0.0, 0.03200000151991844, 0.9920000471174717, 0.0, 0.0, 0.0, 0.0, 0.0, 1.6670493830999916E9, 0.0, 2022-10-29 15:16:23.099
33.0, -90.55232767714188, -2405.3783648512326, -2360.8249366790988, -75.90126960072666, 0.0, 0.03200000151991844, 0.9920000471174717, 0.0, 0.0, 0.0, 0.0, 0.0, 1.6670493831007037E9, 0.0, 2022-10-29 15:16:23.100
33.0, 12.556714101228863, -2461.516133136116, -2418.8027357421815, 22.379561334848404, 0.0, 0.03200000151991844, 0.9920000471174717, 0.0, 0.0, 0.0, 0.0, 0.0, 1.6670493831007037E9, 0.0, 2022-10-29 15:16:23.100
34.0, -37.11476716026664, -2504.319288128987, -2439.757395193912, -27.96136201871559, 0.0, 0.03200000151991844, 0.9920000471174717, 0.0, 0.0, 0.0, 0.0, 0.0, 1.6670493831143825E9, 0.0, 2022-10-29 15:16:23.114
34.0, -129.1761444695294, -2260.176749071572, -2212.380827637855, -121.22698711371049, 0.0, 0.03200000151991844, 0.9920000471174717, 0.0, 0.0, 0.0, 0.0, 0.0, 1.6670493831143825E9, 0.0, 2022-10-29 15:16:23.114
35.0, -88.57018070062622, -2408.001904670149, -2364.087999390438, -90.71501332521439, 0.0, 0.03200000151991844, 0.9920000471174717, 0.0, 0.0, 0.0, 0.0, 0.0, 1.6670493831300895E9, 0.0, 2022-10-29 15:16:23.130
35.0, 16.431250455323607, -2465.8039284353144, -2420.4651212724857, 21.511904545128345, 0.0, 0.03200000151991844, 0.9920000471174717, 0.0, 0.0, 0.0, 0.0, 0.0, 1.6670493831300895E9, 0.0, 2022-10-29 15:16:23.130
36.0, -38.27413614653051, -2499.7173412335105, -2437.80703736702, -33.5151134529151, 0.0, 0.03200000151991844, 0.9920000471174717, 0.0, 0.0, 0.0, 0.0, 0.0, 1.6670493831307693E9, 0.0, 2022-10-29 15:16:23.130
36.0, -125.85885320883244, -2256.147006869316, -2201.7389423139393, -125.16510176705196, 0.0, 0.03200000151991844, 0.9920000471174717, 0.0, 0.0, 0.0, 0.0, 0.0, 1.6670493831307693E9, 0.0, 2022-10-29 15:16:23.130
37.0, -91.88747196132317, -2416.1118777240627, -2369.542643475812, -88.92734114639461, 0.0, 0.03200000151991844, 0.9920000471174717, 0.0, 0.0, 0.0, 0.0, 0.0, 1.6670493831443365E9, 0.0, 2022-10-29 15:16:23.144
37.0, 14.149911482352763, -2479.052524028346, -2420.6240670206025, 29.066502455621958, 0.0, 0.03200000151991844, 0.9920000471174717, 0.0, 0.0, 0.0, 0.0, 0.0, 1.6670493831443365E9, 0.0, 2022-10-29 15:16:23.144
38.0, -40.13286642450839, -2494.644166943617, -2440.4006579862908, -35.15318963350728, 0.0, 0.03200000151991844, 0.9920000471174717, 0.0, 0.0, 0.0, 0.0, 0.0, 1.6670493831601975E9, 0.0, 2022-10-29 15:16:23.160
38.0, -125.58210061211139, -2252.831585558597, -2200.7609584755264, -114.53256619302556, 0.0, 0.03200000151991844, 0.9920000471174717, 0.0, 0.0, 0.0, 0.0, 0.0, 1.6670493831601975E9, 0.0, 2022-10-29 15:16:23.160
39.0, -87.73992291046306, -2415.10771458596, -2370.472008614801, -79.47287405841053, 0.0, 0.03200000151991844, 0.9920000471174717, 0.0, 0.0, 0.0, 0.0, 0.0, 1.6670493831607928E9, 0.0, 2022-10-29 15:16:23.160
39.0, 19.202516322489828, -2467.038095420692, -2420.596017770935, 19.484878769144416, 0.0, 0.03200000151991844, 0.9920000471174717, 0.0, 0.0, 0.0, 0.0, 0.0, 1.6670493831607928E9, 0.0, 2022-10-29 15:16:23.160
40.0, -42.021515902131796, -2521.988445469644, -2449.2436514315195, -41.903709053527564, 0.0, 0.03200000151991844, 0.9920000471174717, 0.0, 0.0, 0.0, 0.0, 0.0, 1.6670493831743503E9, 0.0, 2022-10-29 15:16:23.174
40.0, -127.42213139031082, -2747.6614885958843, -2688.518710696604, -119.76094633108005, 0.0, 0.03200000151991844, 0.9920000471174717, 0.0, 0.0, 0.0, 0.0, 0.0, 1.6670493831743503E9, 0.0, 2022-10-29 15:16:23.174
41.0, -88.9142514965497, -2889.5514229647815, -2850.0767789324746, -84.59279709775001, 0.0, 0.01600000075995922, 0.9920000471174717, 0.0, 0.0, 0.0, 0.0, 0.0, 1.6670493831900508E9, 0.0, 2022-10-29 15:16:23.190
41.0, 18.76120812771842, -2972.4818345322274, -2917.733439080883, 27.563062673434615, 0.0, 0.01600000075995922, 0.9920000471174717, 0.0, 0.0, 0.0, 0.0, 0.0, 1.6670493831900508E9, 0.0, 2022-10-29 15:16:23.190
42.0, -42.70965749397874, -3001.9784254827537, -2935.2960092728026, -36.06572522269562, 0.0, 0.01600000075995922, 0.9920000471174717, 0.0, 0.0, 0.0, 0.0, 0.0, 1.66704938319085E9, 0.0, 2022-10-29 15:16:23.190
42.0, -132.6168524287641, -3234.5216648275964, -3180.3342543696053, -130.90958809899166, 0.0, 0.01600000075995922, 0.9920000471174717, 0.0, 0.0, 0.0, 0.0, 0.0, 1.66704938319085E9, 0.0, 2022-10-29 15:16:23.190
43.0, -91.43868396664038, -3374.721164416522, -3333.630883603357, -87.01251236908138, 0.0, 0.01600000075995922, 0.9920000471174717, 0.0, 0.0, 0.0, 0.0, 0.0, 1.6670493832043772E9, 0.0, 2022-10-29 15:16:23.204
43.0, 28.234374715480953, -3434.793307454791, -3390.168821183499, 38.52096954360604, 0.0, 0.01600000075995922, 0.9920000471174717, 0.0, 0.0, 0.0, 0.0, 0.0, 1.6670493832043772E9, 0.0, 2022-10-29 15:16:23.204
44.0, -36.075074972584844, -3487.9148464254104, -3417.716924257111, -34.30797224352136, 0.0, 0.01600000075995922, 0.9920000471174717, 0.0, 0.0, 0.0, 0.0, 0.0, 1.6670493832201238E9, 0.0, 2022-10-29 15:16:23.220
44.0, -124.4676104253158, -3727.780809883494, -3174.7711531855166, -118.02563275163993, 0.0, 0.01600000075995922, 0.9920000471174717, 0.0, 0.0, 0.0, 0.0, 0.0, 1.6670493832201238E9, 0.0, 2022-10-29 15:16:23.220
45.0, -93.46570974262431, -3884.809859273024, -3334.6238270415924, -89.03205834515393, 0.0, 0.01600000075995922, 0.9920000471174717, 0.0, 0.0, 0.0, 0.0, 0.0, 1.6670493832208395E9, 0.0, 2022-10-29 15:16:23.220
45.0, 19.14641782315448, -3924.3611712544225, -3396.8912913538516, 32.035983020439744, 0.0, 0.01600000075995922, 0.9920000471174717, 0.0, 0.0, 0.0, 0.0, 0.0, 1.6670493832208395E9, 0.0, 2022-10-29 15:16:23.220
46.0, -46.34110035095364, -3965.1522600711323, -3412.120163973421, -44.256106125656515, 0.0, 0.01600000075995922, 0.9920000471174717, 0.0, 0.0, 0.0, 0.0, 0.0, 1.6670493832343516E9, 0.0, 2022-10-29 15:16:23.234
46.0, -121.54300865996629, -4210.194245067891, -3177.8846198986284, -112.03057312266901, 0.0, 0.01600000075995922, 0.9920000471174717, 0.0, 0.0, 0.0, 0.0, 0.0, 1.6670493832343516E9, 0.0, 2022-10-29 15:16:23.234
47.0, -87.39959201449528, -4371.774752703495, -3343.6201563850045, -75.0336128110066, 0.0, 0.01600000075995922, 0.9920000471174717, 0.0, 0.0, 0.0, 0.0, 0.0, 1.6670493832500744E9, 0.0, 2022-10-29 15:16:23.250
47.0, 17.624278541188687, -4438.16732666688, -3404.593615312595, 31.172066130675375, 0.0, 0.01600000075995922, 0.9920000471174717, 0.0, 0.0, 0.0, 0.0, 0.0, 1.6670493832500744E9, 0.0, 2022-10-29 15:16:23.250
48.0, -43.12478638906032, -4469.369311997201, -3427.507982341107, -34.981154235545546, 0.0, 0.01600000075995922, 0.9920000471174717, 0.0, 0.0, 0.0, 0.0, 0.0, 1.667049383250826E9, 0.0, 2022-10-29 15:16:23.250
48.0, -127.28749499190599, -4701.0261950525455, -3667.9311908925883, -122.595790497493, 0.0, 0.01600000075995922, 0.9920000471174717, 0.0, 0.0, 0.0, 0.0, 0.0, 1.667049383250826E9, 0.0, 2022-10-29 15:16:23.250
49.0, -70.51768361451104, -4849.823724639602, -3816.6576623804867, -61.775667468085885, 0.0, 0.01600000075995922, 0.9920000471174717, 0.0, 0.0, 0.0, 0.0, 0.0, 1.6670493832644804E9, 0.0, 2022-10-29 15:16:23.264
49.0, 38.8519506896846, -4901.776544874068, -3876.681186719332, 42.97519039083272, 0.0, 0.01600000075995922, 0.9920000471174717, 0.0, 0.0, 0.0, 0.0, 0.0, 1.6670493832644804E9, 0.0, 2022-10-29 15:16:23.264
50.0, -37.223224258981645, -4950.290527099278, -3905.1941839815117, -30.238961091730744, 0.0, 0.01600000075995922, 0.9920000471174717, 0.0, 0.0, 0.0, 0.0, 0.0, 1.6670493832801714E9, 0.0, 2022-10-29 15:16:23.280
50.0, -124.44517102558166, -4712.064509771764, -3664.0248653888702, -118.89328954135999, 0.0, 0.01600000075995922, 0.9920000471174717, 0.0, 0.0, 0.0, 0.0, 0.0, 1.6670493832801714E9, 0.0, 2022-10-29 15:16:23.280
51.0, -93.14407834643498, -4854.145179038402, -3819.550474996213, -91.39193521719426, 0.0, 0.01600000075995922, 0.9920000471174717, 0.0, 0.0, 0.0, 0.0, 0.0, 1.6670493832807825E9, 0.0, 2022-10-29 15:16:23.280
51.0, 32.194928768556565, -4924.157976158895, -3892.0615252871066, 31.138407031074166, 0.0, 0.01600000075995922, 0.9920000471174717, 0.0, 0.0, 0.0, 0.0, 0.0, 1.6670493832807825E9, 0.0, 2022-10-29 15:16:23.280
52.0, -43.233243487775326, -4967.8063485417515, -3926.2030719826, -38.253566696774215, 0.0, 0.01600000075995922, 0.9920000471174717, 0.0, 0.0, 0.0, 0.0, 0.0, 1.667049383294552E9, 0.0, 2022-10-29 15:16:23.294
52.0, -144.27038069069386, -5210.316421268508, -4169.943571794778, -138.98029220337048, 0.0, 0.01600000075995922, 0.9920000471174717, 0.0, 0.0, 0.0, 0.0, 0.0, 1.667049383294552E9, 0.0, 2022-10-29 15:16:23.294
53.0, -98.05456698825583, -5354.91778310528, -4328.68923526397, -87.69317416101694, 0.0, 0.01600000075995922, 0.9920000471174717, 0.0, 0.0, 0.0, 0.0, 0.0, 1.667049383310137E9, 0.0, 2022-10-29 15:16:23.310
53.0, 31.402069977950305, -5406.896782639436, -4383.031851570122, 40.877106515690684, 0.0, 0.01600000075995922, 0.9920000471174717, 0.0, 0.0, 0.0, 0.0, 0.0, 1.667049383310137E9, 0.0, 2022-10-29 15:16:23.310
54.0, -49.07870711851865, -5470.231988389045, -4415.396945786662, -38.84447088977322, 0.0, 0.01600000075995922, 0.9920000471174717, 0.0, 0.0, 0.0, 0.0, 0.0, 1.6670493833108366E9, 0.0, 2022-10-29 15:16:23.310
54.0, -141.83944571949542, -5705.580152700655, -4650.371120102704, -136.41098093381152, 0.0, 0.01600000075995922, 0.9920000471174717, 0.0, 0.0, 0.0, 0.0, 0.0, 1.6670493833108366E9, 0.0, 2022-10-29 15:16:23.310
55.0, -97.31032689707354, -5834.978821217548, -4808.125710083637, -88.57205065060407, 0.0, 0.01600000075995922, 0.9920000471174717, 0.0, 0.0, 0.0, 0.0, 0.0, 1.6670493833244307E9, 0.0, 2022-10-29 15:16:23.324
55.0, 31.035559782292694, -5894.688193960115, -4869.387141307816, 40.99678331427276, 0.0, 0.01600000075995922, 0.9920000471174717, 0.0, 0.0, 0.0, 0.0, 0.0, 1.6670493833244307E9, 0.0, 2022-10-29 15:16:23.324
56.0, -43.693251182325184, -5943.209655985236, -4900.667664537206, -34.244393944274634, 0.0, 0.01600000075995922, 0.9920000471174717, 0.0, 0.0, 0.0, 0.0, 0.0, 1.6670493833401337E9, 0.0, 2022-10-29 15:16:23.340
56.0, -137.63579816929996, -6181.344045763835, -5145.16736404039, -132.29709098255262, 0.0, 0.01600000075995922, 0.9920000471174717, 0.0, 0.0, 0.0, 0.0, 0.0, 1.6670493833401337E9, 0.0, 2022-10-29 15:16:23.340
57.0, -104.33011911390349, -6343.264884295408, -5310.555089830887, -84.98174669314176, 0.0, 0.01600000075995922, 0.9920000471174717, 0.0, 0.0, 0.0, 0.0, 0.0, 1.6670493833407705E9, 0.0, 2022-10-29 15:16:23.340
57.0, -57.22233927203342, -6377.587816138752, -5344.249718481675, -48.42796452622861, 0.0, 0.01600000075995922, 0.9920000471174717, 0.0, 0.0, 0.0, 0.0, 0.0, 1.6670493833407705E9, 0.0, 2022-10-29 15:16:23.340
58.0, -92.73455930128694, -6338.56009015115, -5283.156582755502, -85.49224303709343, 0.0, 0.01600000075995922, 0.9920000471174717, 0.0, 0.0, 0.0, 0.0, 0.0, 1.6670493833544369E9, 0.0, 2022-10-29 15:16:23.354
58.0, -48.669188073370606, -6187.159590194933, -5145.915344031528, -41.34085411019623, 0.0, 0.01600000075995922, 0.9920000471174717, 0.0, 0.0, 0.0, 0.0, 0.0, 1.6670493833544369E9, 0.0, 2022-10-29 15:16:23.354
59.0, -81.3895727857016, -6349.802229417954, -5331.146978986915, -74.4053096184507, 0.0, 0.01600000075995922, 0.9920000471174717, 0.0, 0.0, 0.0, 0.0, 0.0, 1.6670493833701372E9, 0.0, 2022-10-29 15:16:23.370
59.0, 31.099138081539422, -6407.42099808529, -5380.698783449829, 42.9826701907441, 0.0, 0.01600000075995922, 0.9920000471174717, 0.0, 0.0, 0.0, 0.0, 0.0, 1.6670493833701372E9, 0.0, 2022-10-29 15:16:23.370
60.0, -49.759368910454214, -6446.813364318572, -5396.6083178613335, -44.78717191936448, 0.0, 0.01600000075995922, 0.9920000471174717, 0.0, 0.0, 0.0, 0.0, 0.0, 1.667049383370742E9, 0.0, 2022-10-29 15:16:23.370
60.0, -136.6933433804661, -6689.805884139612, -5640.909802666865, -133.4153210693039, 0.0, 0.01600000075995922, 0.9920000471174717, 0.0, 0.0, 0.0, 0.0, 0.0, 1.667049383370742E9, 0.0, 2022-10-29 15:16:23.370
61.0, -100.93428995413706, -6836.292155554052, -5799.685385335702, -97.20373974833637, 0.0, 0.01600000075995922, 0.9920000471174717, 0.0, 0.0, 0.0, 0.0, 0.0, 1.6670493833844497E9, 0.0, 2022-10-29 15:16:23.384
61.0, 25.92685644282028, -6916.226907256991, -5866.5604063933715, 34.6838321890682, 0.0, 0.01600000075995922, 0.9920000471174717, 0.0, 0.0, 0.0, 0.0, 0.0, 1.6670493833844497E9, 0.0, 2022-10-29 15:16:23.384
62.0, -49.12358591798693, -6954.46738430392, -5898.300937317312, -45.79320500744507, 0.0, 0.01600000075995922, 0.9920000471174717, 0.0, 0.0, 0.0, 0.0, 0.0, 1.667049383400098E9, 0.0, 2022-10-29 15:16:23.400
62.0, -148.260853943415, -7189.093747924082, -6124.699521034956, -141.99465156765655, 0.0, 0.01600000075995922, 0.9920000471174717, 0.0, 0.0, 0.0, 0.0, 0.0, 1.667049383400098E9, 0.0, 2022-10-29 15:16:23.400
63.0, -98.57441308209673, -7311.480104024056, -6281.878166422714, -84.7461329959333, 0.0, 0.01600000075995922, 0.9920000471174717, 0.0, 0.0, 0.0, 0.0, 0.0, 1.667049383400768E9, 0.0, 2022-10-29 15:16:23.400
63.0, 30.164163092616946, -7388.9315621564165, -6353.734734221362, 41.40069250948727, 0.0, 0.01600000075995922, 0.9920000471174717, 0.0, 0.0, 0.0, 0.0, 0.0, 1.667049383400768E9, 0.0, 2022-10-29 15:16:23.400
64.0, -48.32324732746929, -7420.668353180401, -6380.979905398563, -42.80876484280452, 0.0, 0.01600000075995922, 0.9920000471174717, 0.0, 0.0, 0.0, 0.0, 0.0, 1.6670493834143424E9, 0.0, 2022-10-29 15:16:23.414
64.0, -139.64786434546113, -7660.496917638928, -6624.00982421916, -132.6710809781216, 0.0, 0.01600000075995922, 0.9920000471174717, 0.0, 0.0, 0.0, 0.0, 0.0, 1.6670493834143424E9, 0.0, 2022-10-29 15:16:23.414
65.0, -102.35171203734353, -7798.826467250008, -6767.620112567674, -89.33125034160912, 0.0, 0.01600000075995922, 0.9920000471174717, 0.0, 0.0, 0.0, 0.0, 0.0, 1.6670493834301023E9, 0.0, 2022-10-29 15:16:23.430
65.0, 40.42644857103005, -7862.89656334091, -6832.232494152151, 50.98979599587619, 0.0, 0.01600000075995922, 0.9920000471174717, 0.0, 0.0, 0.0, 0.0, 0.0, 1.6670493834301023E9, 0.0, 2022-10-29 15:16:23.430
66.0, -50.155798305757344, -7917.742196191102, -6872.084868079983, -45.052704816218466, 0.0, 0.01600000075995922, 0.9920000471174717, 0.0, 0.0, 0.0, 0.0, 0.0, 1.6670493834308777E9, 0.0, 2022-10-29 15:16:23.430
66.0, -141.52155422326177, -8152.735070006922, -7099.9233132805675, -132.09887628490105, 0.0, 0.01600000075995922, 0.9920000471174717, 0.0, 0.0, 0.0, 0.0, 0.0, 1.6670493834308777E9, 0.0, 2022-10-29 15:16:23.430
67.0, -102.74066163273528, -8286.516901271883, -7256.013647781219, -90.68509412556887, 0.0, 0.01600000075995922, 0.9920000471174717, 0.0, 0.0, 0.0, 0.0, 0.0, 1.6670493834443831E9, 0.0, 2022-10-29 15:16:23.444
67.0, 35.30278563173488, -8360.247158948332, -7325.712293305434, 43.90268557984382, 0.0, 0.01600000075995922, 0.9920000471174717, 0.0, 0.0, 0.0, 0.0, 0.0, 1.6670493834443831E9, 0.0, 2022-10-29 15:16:23.444
68.0, -47.85201993305236, -8421.435662123375, -7361.963143575937, -42.09818385122344, 0.0, 0.01600000075995922, 0.9920000471174717, 0.0, 0.0, 0.0, 0.0, 0.0, 1.6670493834600751E9, 0.0, 2022-10-29 15:16:23.460
68.0, -139.63664464559406, -8638.084326656535, -7587.0265830093995, -138.13133491342887, 0.0, 0.01600000075995922, 0.9920000471174717, 0.0, 0.0, 0.0, 0.0, 0.0, 1.6670493834600751E9, 0.0, 2022-10-29 15:16:23.460
69.0, -98.57815298205242, -8761.596392643172, -7745.028006387409, -96.44827995728701, 0.0, 0.01600000075995922, 0.9920000471174717, 0.0, 0.0, 0.0, 0.0, 0.0, 1.667049383460795E9, 0.0, 2022-10-29 15:16:23.460
69.0, 37.7038014032878, -8852.174899620004, -7821.656686529517, 51.16183139383793, 0.0, 0.01600000075995922, 0.9920000471174717, 0.0, 0.0, 0.0, 0.0, 0.0, 1.667049383460795E9, 0.0, 2022-10-29 15:16:23.460
70.0, -44.56838777195662, -8909.208373944275, -7845.390091648325, -41.20434776181355, 0.0, 0.01600000075995922, 0.9920000471174717, 0.0, 0.0, 0.0, 0.0, 0.0, 1.6670493834743807E9, 0.0, 2022-10-29 15:16:23.474
70.0, -148.97891473490745, -9134.241894178092, -8087.43267688062, -143.62898784829304, 0.0, 0.01600000075995922, 0.9920000471174717, 0.0, 0.0, 0.0, 0.0, 0.0, 1.6670493834743807E9, 0.0, 2022-10-29 15:16:23.474
71.0, -94.30344733269885, -9256.085964784492, -8221.55483904155, -90.69257392548025, 0.0, 0.01600000075995922, 0.9920000471174717, 0.0, 0.0, 0.0, 0.0, 0.0, 1.6670493834900775E9, 0.0, 2022-10-29 15:16:23.490
71.0, 54.4136744053103, -9319.501578383148, -8292.401633852161, 65.53426692355424, 0.0, 0.01600000075995922, 0.9920000471174717, 0.0, 0.0, 0.0, 0.0, 0.0, 1.6670493834900775E9, 0.0, 2022-10-29 15:16:23.490
72.0, -45.07327426597476, -9374.29485263396, -8325.537147459574, -36.52947281720117, 0.0, 0.01600000075995922, 0.9920000471174717, 0.0, 0.0, 0.0, 0.0, 0.0, 1.6670493834907935E9, 0.0, 2022-10-29 15:16:23.490
72.0, -147.09026525728405, -9131.494937660638, -8565.107658821158, -135.8238166407682, 0.0, 0.01600000075995922, 0.9920000471174717, 0.0, 0.0, 0.0, 0.0, 0.0, 1.6670493834907935E9, 0.0, 2022-10-29 15:16:23.490
73.0, -99.16905717505142, -9256.891913224943, -8717.398254966829, -88.49725265149027, 0.0, 0.01600000075995922, 0.9920000471174717, 0.0, 0.0, 0.0, 0.0, 0.0, 1.6670493835044827E9, 0.0, 2022-10-29 15:16:23.504
73.0, 51.522731739562005, -9340.069158189464, -8800.395984733477, 56.01622153632343, 0.0, 0.01600000075995922, 0.9920000471174717, 0.0, 0.0, 0.0, 0.0, 0.0, 1.6670493835044827E9, 0.0, 2022-10-29 15:16:23.504
74.0, -51.97712958417833, -9396.122778725345, -8825.352337137796, -44.42814152361825, 0.0, 0.01600000075995922, 0.9920000471174717, 0.0, 0.0, 0.0, 0.0, 0.0, 1.6670493835200584E9, 0.0, 2022-10-29 15:16:23.520
74.0, -153.2199612846598, -9616.945171609055, -9053.493714234792, -141.3813079749234, 0.0, 0.01600000075995922, 0.9920000471174717, 0.0, 0.0, 0.0, 0.0, 0.0, 1.6670493835200584E9, 0.0, 2022-10-29 15:16:23.520
75.0, -102.02260084124282, -9727.655560047366, -9192.68344083568, -91.85194291174412, 0.0, 0.01600000075995922, 0.9920000471174717, 0.0, 0.0, 0.0, 0.0, 0.0, 1.6670493835208385E9, 0.0, 2022-10-29 15:16:23.520
75.0, 54.44359360495582, -9829.076036995742, -9279.963356051594, 67.97642159461975, 0.0, 0.01600000075995922, 0.9920000471174717, 0.0, 0.0, 0.0, 0.0, 0.0, 1.6670493835208385E9, 0.0, 2022-10-29 15:16:23.520
76.0, -42.810634792782366, -9874.108172362205, -9313.218546457589, -41.27914576092735, 0.0, 0.01600000075995922, 0.9920000471174717, 0.0, 0.0, 0.0, 0.0, 0.0, 1.6670493835343556E9, 0.0, 2022-10-29 15:16:23.534
76.0, -134.9542899010703, -10094.014289756771, -9532.795552656054, -130.857229499612, 0.0, 0.01600000075995922, 0.9920000471174717, 0.0, 0.0, 0.0, 0.0, 0.0, 1.6670493835343556E9, 0.0, 2022-10-29 15:16:23.534
77.0, -95.51517491834238, -10227.463269925676, -9683.096522025298, -88.13822225574404, 0.0, 0.01600000075995922, 0.9920000471174717, 0.0, 0.0, 0.0, 0.0, 0.0, 1.6670493835501115E9, 0.0, 2022-10-29 15:16:23.550
77.0, 63.52781059732661, -10300.273512213025, -9765.705302196555, 77.09429768659174, 0.0, 0.01600000075995922, 0.9920000471174717, 0.0, 0.0, 0.0, 0.0, 0.0, 1.6670493835501115E9, 0.0, 2022-10-29 15:16:23.550
78.0, -44.011142678558826, -10360.642977297772, -9799.192366399802, -42.09818385122344, 0.0, 0.01600000075995922, 0.9920000471174717, 0.0, 0.0, 0.0, 0.0, 0.0, 1.6670493835507724E9, 0.0, 2022-10-29 15:16:23.550
78.0, -148.91533643566072, -10600.430402856786, -10031.047464152798, -140.20697938883677, 0.0, 0.01600000075995922, 0.9920000471174717, 0.0, 0.0, 0.0, 0.0, 0.0, 1.6670493835507724E9, 0.0, 2022-10-29 15:16:23.550
79.0, -100.48924185940996, -10735.038752011955, -10173.554482014384, -94.88874167576432, 0.0, 0.01600000075995922, 0.9920000471174717, 0.0, 0.0, 0.0, 0.0, 0.0, 1.667049383564437E9, 0.0, 2022-10-29 15:16:23.564
79.0, 57.77210456551984, -10798.805916206446, -10265.542931274511, 70.85614456050098, 0.0, 0.01600000075995922, 0.9920000471174717, 0.0, 0.0, 0.0, 0.0, 0.0, 1.667049383564437E9, 0.0, 2022-10-29 15:16:23.564
80.0, -44.6880645705387, -10858.289025001694, -10290.454404879361, -38.646256192121655, 0.0, 0.01600000075995922, 0.9920000471174717, 0.0, 0.0, 0.0, 0.0, 0.0, 1.6670493835801797E9, 0.0, 2022-10-29 15:16:23.580
80.0, -149.50250072870404, -11095.46226049168, -10520.106701558456, -135.96219293912873, 0.0, 0.01600000075995922, 0.9920000471174717, 0.0, 0.0, 0.0, 0.0, 0.0, 1.6670493835801797E9, 0.0, 2022-10-29 15:16:23.580
81.0, -106.55535958753899, -11211.184114870615, -10667.602745960932, -88.64684864971787, 0.0, 0.01600000075995922, 0.9920000471174717, 0.0, 0.0, 0.0, 0.0, 0.0, 1.6670493835808644E9, 0.0, 2022-10-29 15:16:23.580
81.0, 62.375921410974115, -11288.403699205723, -10757.37717444729, 73.09260473400354, 0.0, 0.01600000075995922, 0.9920000471174717, 0.0, 0.0, 0.0, 0.0, 0.0, 1.6670493835808644E9, 0.0, 2022-10-29 15:16:23.580
82.0, -39.83741432800889, -11341.27466487931, -10785.063653819263, -39.76822617882863, 0.0, 0.01600000075995922, 0.9920000471174717, 0.0, 0.0, 0.0, 0.0, 0.0, 1.6670493835946152E9, 0.0, 2022-10-29 15:16:23.594
82.0, -147.8120659487322, -11575.803791100625, -11012.565508023836, -143.677606547717, 0.0, 0.01600000075995922, 0.9920000471174717, 0.0, 0.0, 0.0, 0.0, 0.0, 1.6670493835946152E9, 0.0, 2022-10-29 15:16:23.594
83.0, -98.08822608785704, -11709.54822336603, -11154.376904493663, -81.00623304024339, 0.0, 0.01600000075995922, 0.9920000471174717, 0.0, 0.0, 0.0, 0.0, 0.0, 1.6670493836100576E9, 0.0, 2022-10-29 15:16:23.610
83.0, 63.209919101092964, -11786.722928901669, -11234.67816639226, 73.4030164303258, 0.0, 0.01600000075995922, 0.9920000471174717, 0.0, 0.0, 0.0, 0.0, 0.0, 1.6670493836100576E9, 0.0, 2022-10-29 15:16:23.610
84.0, -52.62787217646837, -11847.058734886814, -11271.901390651241, -40.80417846655473, 0.0, 0.01600000075995922, 0.9920000471174717, 0.0, 0.0, 0.0, 0.0, 0.0, 1.6670493836107883E9, 0.0, 2022-10-29 15:16:23.610
84.0, -151.8100190013647, -12058.475279381964, -11499.799674251117, -144.3507885397412, 0.0, 0.01600000075995922, 0.9920000471174717, 0.0, 0.0, 0.0, 0.0, 0.0, 1.6670493836107883E9, 0.0, 2022-10-29 15:16:23.610
85.0, -105.64282399835065, -12192.294509646483, -11649.741613224614, -99.94882631581277, 0.0, 0.01600000075995922, 0.9920000471174717, 0.0, 0.0, 0.0, 0.0, 0.0, 1.667049383624457E9, 0.0, 2022-10-29 15:16:23.624
85.0, 62.99674480361864, -12277.663335985038, -11732.167138298042, 77.67772207967937, 0.0, 0.01600000075995922, 0.9920000471174717, 0.0, 0.0, 0.0, 0.0, 0.0, 1.667049383624457E9, 0.0, 2022-10-29 15:16:23.624
86.0, -43.43519808538258, -12332.112539439928, -11768.504006267525, -37.75242010271177, 0.0, 0.01600000075995922, 0.9920000471174717, 0.0, 0.0, 0.0, 0.0, 0.0, 1.6670493836400394E9, 0.0, 2022-10-29 15:16:23.640
86.0, -156.0024468516931, -12570.460103516001, -12002.098157499917, -148.18792589427903, 0.0, 0.01600000075995922, 0.9920000471174717, 0.0, 0.0, 0.0, 0.0, 0.0, 1.6670493836400394E9, 0.0, 2022-10-29 15:16:23.640
87.0, -101.73836844461039, -12687.109453083947, -12140.943813304882, -107.91855312138796, 0.0, 0.01600000075995922, 0.9920000471174717, 0.0, 0.0, 0.0, 0.0, 0.0, 1.6670493836407692E9, 0.0, 2022-10-29 15:16:23.640
87.0, 61.141754425596446, -12770.526051645633, -12224.304313367233, 64.65165053401142, 0.0, 0.01600000075995922, 0.9920000471174717, 0.0, 0.0, 0.0, 0.0, 0.0, 1.6670493836407692E9, 0.0, 2022-10-29 15:16:23.640
88.0, -47.44437083788216, -12819.825412861537, -12257.697880071588, -37.29241240816191, 0.0, 0.01600000075995922, 0.9920000471174717, 0.0, 0.0, 0.0, 0.0, 0.0, 1.6670493836544688E9, 0.0, 2022-10-29 15:16:23.654
88.0, -149.64835682697594, -13046.54562797537, -12480.393962833099, -141.41122717456892, 0.0, 0.01600000075995922, 0.9920000471174717, 0.0, 0.0, 0.0, 0.0, 0.0, 1.6670493836544688E9, 0.0, 2022-10-29 15:16:23.654
89.0, -108.57490556361154, -13179.613138348795, -12626.498764452059, -98.66978053096682, 0.0, 0.01600000075995922, 0.9920000471174717, 0.0, 0.0, 0.0, 0.0, 0.0, 1.6670493836701317E9, 0.0, 2022-10-29 15:16:23.670
89.0, 62.26746431225911, -13265.05302278651, -12707.63776394073, 72.9243092359975, 0.0, 0.01600000075995922, 0.9920000471174717, 0.0, 0.0, 0.0, 0.0, 0.0, 1.6670493836701317E9, 0.0, 2022-10-29 15:16:23.670
90.0, -48.01283563114703, -13313.518386312295, -12746.18865268398, -40.43392837094143, 0.0, 0.01600000075995922, 1.008000047877431, 0.0, 0.0, 0.0, 0.0, 0.0, 1.6670493836707697E9, 0.0, 2022-10-29 15:16:23.670
90.0, -149.5847785277292, -13529.852899249177, -12970.541511125863, -145.54007672565058, 0.0, 0.01600000075995922, 1.008000047877431, 0.0, 0.0, 0.0, 0.0, 0.0, 1.6670493836707697E9, 0.0, 2022-10-29 15:16:23.670
91.0, -99.98435536539182, -13658.32407257706, -13108.141780245584, -82.58073092158884, 0.0, 0.01600000075995922, 1.008000047877431, 0.0, 0.0, 0.0, 0.0, 0.0, 1.667049383684504E9, 0.0, 2022-10-29 15:16:23.684
91.0, 69.43685252731666, -13750.649112833198, -13208.290691209026, 69.56213917583227, 0.0, 0.01600000075995922, 1.008000047877431, 0.0, 0.0, 0.0, 0.0, 0.0, 1.667049383684504E9, 0.0, 2022-10-29 15:16:23.684
92.0, -45.93719115573913, -13807.918200854678, -13241.351406817324, -44.36082332441583, 0.0, 0.01600000075995922, 1.008000047877431, 0.0, 0.0, 0.0, 0.0, 0.0, 1.6670493837000597E9, 0.0, 2022-10-29 15:16:23.700
92.0, -156.94490164052695, -14030.113137022126, -13469.844334510155, -157.0215695896186, 0.0, 0.01600000075995922, 1.008000047877431, 0.0, 0.0, 0.0, 0.0, 0.0, 1.6670493837000597E9, 0.0, 2022-10-29 15:16:23.700
93.0, -110.43737574154511, -14157.37632266432, -13607.807373925578, -101.972112191841, 0.0, 0.01600000075995922, 1.008000047877431, 0.0, 0.0, 0.0, 0.0, 0.0, 1.6670493837007573E9, 0.0, 2022-10-29 15:16:23.700
93.0, 61.130534725729376, -14243.134098598268, -13694.02889745403, 71.42086945381016, 0.0, 0.01600000075995922, 1.008000047877431, 0.0, 0.0, 0.0, 0.0, 0.0, 1.6670493837007573E9, 0.0, 2022-10-29 15:16:23.700
94.0, -34.32854169327766, -14291.131974629592, -13720.230636543594, -30.201562092173845, 0.0, 0.01600000075995922, 1.008000047877431, 0.0, 0.0, 0.0, 0.0, 0.0, 1.6670493837145884E9, 0.0, 2022-10-29 15:16:23.714
94.0, -160.71846069581807, -14520.470119712409, -13948.592667737976, -151.4229393559508, 0.0, 0.01600000075995922, 1.008000047877431, 0.0, 0.0, 0.0, 0.0, 0.0, 1.6670493837145884E9, 0.0, 2022-10-29 15:16:23.714
95.0, -105.24265470309183, -14638.376075665466, -14086.593106152955, -96.07055006176233, 0.0, 0.01600000075995922, 1.008000047877431, 0.0, 0.0, 0.0, 0.0, 0.0, 1.667049383730032E9, 0.0, 2022-10-29 15:16:23.730
95.0, 71.66209300095215, -14724.219869298395, -14179.378154103644, 80.83419764228165, 0.0, 0.01600000075995922, 1.008000047877431, 0.0, 0.0, 0.0, 0.0, 0.0, 1.667049383730032E9, 0.0, 2022-10-29 15:16:23.730
96.0, -34.47065789159387, -14779.405833044555, -14216.8145526601, -36.72020771494135, 0.0, 0.01600000075995922, 1.008000047877431, 0.0, 0.0, 0.0, 0.0, 0.0, 1.667049383730863E9, 0.0, 2022-10-29 15:16:23.730
96.0, -156.31659844797105, -15010.124001211021, -14444.151851266623, -150.757237163838, 0.0, 0.01600000075995922, 1.008000047877431, 0.0, 0.0, 0.0, 0.0, 0.0, 1.667049383730863E9, 0.0, 2022-10-29 15:16:23.730
97.0, -109.58467855164781, -15137.746217248961, -14588.813051502686, -88.87124264705926, 0.0, 0.01600000075995922, 1.008000047877431, 0.0, 0.0, 0.0, 0.0, 0.0, 1.6670493837445407E9, 0.0, 2022-10-29 15:16:23.744
97.0, 66.96851855656132, -15215.422069378663, -14674.821400733665, 70.80752586107701, 0.0, 0.01600000075995922, 1.008000047877431, 0.0, 0.0, 0.0, 0.0, 0.0, 1.6670493837445407E9, 0.0, 2022-10-29 15:16:23.744
98.0, -51.07955359481275, -15291.686109275091, -14716.20713364333, -46.79549819556996, 0.0, 0.01600000075995922, 1.008000047877431, 0.0, 0.0, 0.0, 0.0, 0.0, 1.667049383760373E9, 0.0, 2022-10-29 15:16:23.760
98.0, -155.61723715625703, -15492.19710549945, -14930.00973431021, -151.3892802563496, 0.0, 0.01600000075995922, 1.008000047877431, 0.0, 0.0, 0.0, 0.0, 0.0, 1.667049383760373E9, 0.0, 2022-10-29 15:16:23.760
99.0, -99.16157737514004, -15603.30766323302, -15071.088110388722, -89.02457854524255, 0.0, 0.01600000075995922, 1.008000047877431, 0.0, 0.0, 0.0, 0.0, 0.0, 1.6670493837608757E9, 0.0, 2022-10-29 15:16:23.760
99.0, 76.71469784108922, -15700.816204827745, -15158.45030340366, 83.26887251343578, 0.0, 0.01600000075995922, 1.008000047877431, 0.0, 0.0, 0.0, 0.0, 0.0, 1.6670493837608757E9, 0.0, 2022-10-29 15:16:23.760
100.0, -42.896652491763234, -15774.929802249651, -15200.303523807786, -34.92131583625451, 0.0, 0.01600000075995922, 1.008000047877431, 0.0, 0.0, 0.0, 0.0, 0.0, 1.6670493837750509E9, 0.0, 2022-10-29 15:16:23.775
100.0, -167.42784121632576, -15986.372526044492, -15425.067771244794, -163.92168500786647, 0.0, 0.01600000075995922, 1.008000047877431, 0.0, 0.0, 0.0, 0.0, 0.0, 1.6670493837750509E9, 0.0, 2022-10-29 15:16:23.775
0.0, -1573.9836451015435, -414.11725214356557, -363.38363929465413, -1566.754418487195, 0.0, 0.01600000075995922, 1.008000047877431, 0.0, 0.0, 0.0, 0.0, 0.0, 1.667049383775755E9, 0.0, 2022-10-29 15:16:23.775
1.0, -1388.7314406963997, -508.08036858029664, -456.939106636215, -1375.978381847497, 0.0, 0.01600000075995922, 1.008000047877431, 0.0, 0.0, 0.0, 0.0, 0.0, 1.6670493837894297E9, 0.0, 2022-10-29 15:16:23.789
1.0, -1517.0081392265856, -579.5124577339739, -497.8012535520829, -1507.6471696374938, 0.0, 0.01600000075995922, 1.008000047877431, 0.0, 0.0, 0.0, 0.0, 0.0, 1.6670493837894297E9, 0.0, 2022-10-29 15:16:23.789
2.0, -1642.216249843128, -805.200460460037, -724.491549466271, -1639.6656380733475, 0.0, 0.01600000075995922, 1.008000047877431, 0.0, 0.0, 0.0, 0.0, 0.0, 1.667049383805035E9, 0.0, 2022-10-29 15:16:23.805
2.0, -1577.8993203551508, -938.6083017294295, -866.3403449356556, -1565.2995974044316, 0.0, 0.01600000075995922, 1.008000047877431, 0.0, 0.0, 0.0, 0.0, 0.0, 1.667049383805035E9, 0.0, 2022-10-29 15:16:23.805
3.0, -1391.3493706653826, -998.2166971731931, -946.4396522366442, -1384.6063310452737, 0.0, 0.01600000075995922, 1.008000047877431, 0.0, 0.0, 0.0, 0.0, 0.0, 1.6670493838057644E9, 0.0, 2022-10-29 15:16:23.805
3.0, -1516.7239068299532, -1063.9903176939115, -995.7203139527701, -1515.497219644487, 0.0, 0.01600000075995922, 1.008000047877431, 0.0, 0.0, 0.0, 0.0, 0.0, 1.6670493838057644E9, 0.0, 2022-10-29 15:16:23.805
4.0, -1637.3469001008198, -1290.6843535080552, -1216.8082397333346, -1625.3904399424791, 0.0, 0.01600000075995922, 1.008000047877431, 0.0, 0.0, 0.0, 0.0, 0.0, 1.6670493838194542E9, 0.0, 2022-10-29 15:16:23.819
4.0, -1581.2465308154933, -1405.516111697536, -1351.3941494887695, -1565.8531025978737, 0.0, 0.01600000075995922, 1.008000047877431, 0.0, 0.0, 0.0, 0.0, 0.0, 1.6670493838194542E9, 0.0, 2022-10-29 15:16:23.819
5.0, -1397.520205592271, -1505.0292396685109, -1444.6354652340524, -1391.6186434621923, 0.0, 0.01600000075995922, 1.008000047877431, 0.0, 0.0, 0.0, 0.0, 0.0, 1.6670493838351936E9, 0.0, 2022-10-29 15:16:23.835
5.0, -1524.0092319436371, -1568.899251111783, -1480.411348210182, -1516.0731642376631, 0.0, 0.01600000075995922, 1.008000047877431, 0.0, 0.0, 0.0, 0.0, 0.0, 1.6670493838351936E9, 0.0, 2022-10-29 15:16:23.835
6.0, -1638.177157890983, -1782.3877001823857, -1704.0648453603499, -1628.9844837998971, 0.0, 0.01600000075995922, 1.008000047877431, 0.0, 0.0, 0.0, 0.0, 0.0, 1.667049383835843E9, 0.0, 2022-10-29 15:16:23.835
6.0, -1575.8423753795214, -1891.6993660372682, -1830.4902934124693, -1573.20574591076, 0.0, 0.01600000075995922, 1.008000047877431, 0.0, 0.0, 0.0, 0.0, 0.0, 1.667049383835843E9, 0.0, 2022-10-29 15:16:23.835
7.0, -1392.5199593515135, -1975.8639445900917, -1919.3185272100382, -1381.274080184754, 0.0, 0.01600000075995922, 1.008000047877431, 0.0, 0.0, 0.0, 0.0, 0.0, 1.667049383849388E9, 0.0, 2022-10-29 15:16:23.849
7.0, -1533.332802533172, -2014.8224824285135, -1949.690254750196, -1529.1067155832425, 0.0, 0.01600000075995922, 1.008000047877431, 0.0, 0.0, 0.0, 0.0, 0.0, 1.667049383849388E9, 0.0, 2022-10-29 15:16:23.849
8.0, -1607.0574503596872, -2242.051323936321, -2178.9274225342087, -1607.6446146527305, 0.0, 0.01600000075995922, 1.008000047877431, 0.0, 0.0, 0.0, 0.0, 0.0, 1.6670493838651783E9, 0.0, 2022-10-29 15:16:23.865
8.0, -1575.2888701860793, -2379.3785803592764, -2329.5088844001293, -1564.7460922109894, 0.0, 0.01600000075995922, 1.008000047877431, 0.0, 0.0, 0.0, 0.0, 0.0, 1.6670493838651783E9, 0.0, 2022-10-29 15:16:23.865
9.0, -1389.0455922926776, -2480.0136783169582, -2429.7812120621093, -1373.4502094774507, 0.0, 0.01600000075995922, 1.008000047877431, 0.0, 0.0, 0.0, 0.0, 0.0, 1.66704938386579E9, 0.0, 2022-10-29 15:16:23.865
9.0, -1545.0723484940827, -2537.7951326323673, -2446.5397037635557, -1533.0710095362738, 0.0, 0.01600000075995922, 1.008000047877431, 0.0, 0.0, 0.0, 0.0, 0.0, 1.66704938386579E9, 0.0, 2022-10-29 15:16:23.865
10.0, -1626.7704630261287, -2751.5528544997796, -2666.438341358211, -1614.114641576074, 0.0, 0.01600000075995922, 0.9920000471174717, 0.0, 0.0, 0.0, 0.0, 0.0, 1.6670493838793745E9, 0.0, 2022-10-29 15:16:23.879
10.0, -1582.0655689057894, -2868.2396030672826, -2794.834716686979, -1570.9318867377006, 0.0, 0.01600000075995922, 0.9920000471174717, 0.0, 0.0, 0.0, 0.0, 0.0, 1.6670493838793745E9, 0.0, 2022-10-29 15:16:23.879
11.0, -1374.5347804646008, -2974.4733312586322, -2902.5868442603387, -1367.3167735501193, 0.0, 0.01600000075995922, 0.9920000471174717, 0.0, 0.0, 0.0, 0.0, 0.0, 1.6670493838950775E9, 0.0, 2022-10-29 15:16:23.895
11.0, -1507.837904535234, -3002.2607879294083, -2925.6956860865466, -1498.0169272515923, 0.0, 0.01600000075995922, 0.9920000471174717, 0.0, 0.0, 0.0, 0.0, 0.0, 1.6670493838950775E9, 0.0, 2022-10-29 15:16:23.895
12.0, -1696.6392739983276, -3194.824496747926, -3128.921849678736, -1688.1945798983797, 0.0, 0.01600000075995922, 0.9920000471174717, 0.0, 0.0, 0.0, 0.0, 0.0, 1.6670493838959904E9, 0.0, 2022-10-29 15:16:23.895
12.0, -1556.514572408516, -3294.0272130225785, -3245.163550151512, -1556.020905614365, 0.0, 0.01600000075995922, 0.9920000471174717, 0.0, 0.0, 0.0, 0.0, 0.0, 1.6670493838959904E9, 0.0, 2022-10-29 15:16:23.895
13.0, -1333.2911637532525, -3462.4891365766525, -3407.4957776782103, -1328.2946574124508, 0.0, 0.01600000075995922, 0.9920000471174717, 0.0, 0.0, 0.0, 0.0, 0.0, 1.6670493839094024E9, 0.0, 2022-10-29 15:16:23.909
13.0, -1509.9621677100658, -3529.227651285939, -3451.5405794563703, -1510.3324178056791, 0.0, 0.01600000075995922, 0.9920000471174717, 0.0, 0.0, 0.0, 0.0, 0.0, 1.6670493839094024E9, 0.0, 2022-10-29 15:16:23.909
14.0, -1635.4058920238167, -3743.770752144046, -3655.0472355452366, -1627.4361652182415, 0.0, 0.01600000075995922, 0.9920000471174717, 0.0, 0.0, 0.0, 0.0, 0.0, 1.667049383925144E9, 0.0, 2022-10-29 15:16:23.925
14.0, -1582.626553899143, -3866.9312675348483, -3796.054553524591, -1573.7330718045123, 0.0, 0.01600000075995922, 0.9920000471174717, 0.0, 0.0, 0.0, 0.0, 0.0, 1.667049383925144E9, 0.0, 2022-10-29 15:16:23.925
15.0, -1380.4700016942807, -3945.8562462497503, -3884.845388322603, -1372.1150651932694, 0.0, 0.01600000075995922, 0.9920000471174717, 0.0, 0.0, 0.0, 0.0, 0.0, 1.6670493839258623E9, 0.0, 2022-10-29 15:16:23.925
15.0, -1514.1732950601727, -3992.896707892418, -3915.553706858773, -1506.2484470540658, 0.0, 0.01600000075995922, 0.9920000471174717, 0.0, 0.0, 0.0, 0.0, 0.0, 1.6670493839258623E9, 0.0, 2022-10-29 15:16:23.925
16.0, -1633.7304168436676, -4218.098523624241, -4139.035168610979, -1626.4151725303382, 0.0, 0.01600000075995922, 0.9920000471174717, 0.0, 0.0, 0.0, 0.0, 0.0, 1.6670493839394624E9, 0.0, 2022-10-29 15:16:23.939
16.0, -1578.561282647308, -4331.280985933263, -4280.169643188827, -1577.558989459183, 0.0, 0.01600000075995922, 0.9920000471174717, 0.0, 0.0, 0.0, 0.0, 0.0, 1.6670493839394624E9, 0.0, 2022-10-29 15:16:23.939
17.0, -1371.5989589993842, -4430.88761140313, -4380.2998546524905, -1363.5993129941635, 0.0, 0.01600000075995922, 0.9920000471174717, 0.0, 0.0, 0.0, 0.0, 0.0, 1.6670493839551876E9, 0.0, 2022-10-29 15:16:23.955
17.0, -1513.470193868503, -4492.307988375425, -4423.806110837031, -1506.8804901465774, 0.0, 0.01600000075995922, 0.9920000471174717, 0.0, 0.0, 0.0, 0.0, 0.0, 1.6670493839551876E9, 0.0, 2022-10-29 15:16:23.955
18.0, -1642.9305707346648, -4711.436206579208, -4625.727049344685, -1633.4798435466364, 0.0, 0.01600000075995922, 0.9920000471174717, 0.0, 0.0, 0.0, 0.0, 0.0, 1.6670493839559877E9, 0.0, 2022-10-29 15:16:23.955
18.0, -1580.165699728299, -4841.904486483429, -4766.517453126609, -1569.7164192521013, 0.0, 0.01600000075995922, 0.9920000471174717, 0.0, 0.0, 0.0, 0.0, 0.0, 1.6670493839559877E9, 0.0, 2022-10-29 15:16:23.955
19.0, -1371.1613907045685, -4928.425202008337, -4869.362831958104, -1372.0552267939784, 0.0, 0.01600000075995922, 0.9920000471174717, 0.0, 0.0, 0.0, 0.0, 0.0, 1.6670493839694335E9, 0.0, 2022-10-29 15:16:23.969
19.0, -1500.0963116269559, -4970.214844113216, -4895.040985053871, -1495.8777044769377, 0.0, 0.01600000075995922, 0.9920000471174717, 0.0, 0.0, 0.0, 0.0, 0.0, 1.6670493839694335E9, 0.0, 2022-10-29 15:16:23.969
20.0, -1625.5101167410612, -5180.442100422457, -5108.017067830544, -1614.4923714715987, 0.0, 0.01600000075995922, 0.9920000471174717, 0.0, 0.0, 0.0, 0.0, 0.0, 1.6670493839851308E9, 0.0, 2022-10-29 15:16:23.985
20.0, -1573.1795666110702, -5304.713366100099, -5240.762946807779, -1565.5501707014628, 0.0, 0.01600000075995922, 0.9920000471174717, 0.0, 0.0, 0.0, 0.0, 0.0, 1.6670493839851308E9, 0.0, 2022-10-29 15:16:23.985
21.0, -1369.1455846284516, -5415.34521663934, -5349.9100570646115, -1362.1669313111342, 0.0, 0.01600000075995922, 0.9920000471174717, 0.0, 0.0, 0.0, 0.0, 0.0, 1.66704938398591E9, 0.0, 2022-10-29 15:16:23.985
21.0, -1509.1132104201242, -5483.048625537194, -5399.063562182244, -1512.3295243820176, 0.0, 0.01600000075995922, 0.9920000471174717, 0.0, 0.0, 0.0, 0.0, 0.0, 1.66704938398591E9, 0.0, 2022-10-29 15:16:23.985
22.0, -1653.2975734118372, -5700.138598265126, -5613.311210943852, -1643.0539874332026, 0.0, 0.01600000075995922, 0.9920000471174717, 0.0, 0.0, 0.0, 0.0, 0.0, 1.6670493839995496E9, 0.0, 2022-10-29 15:16:23.999
22.0, -1590.5027832058258, -5813.339760073926, -5745.53350392729, -1579.3952803374268, 0.0, 0.01600000075995922, 0.9920000471174717, 0.0, 0.0, 0.0, 0.0, 0.0, 1.6670493839995496E9, 0.0, 2022-10-29 15:16:23.999
23.0, -1376.7675007381476, -5908.623061195016, -5848.038551862817, -1378.259720820468, 0.0, 0.01600000075995922, 0.9920000471174717, 0.0, 0.0, 0.0, 0.0, 0.0, 1.6670493840150888E9, 0.0, 2022-10-29 15:16:24.015
23.0, -1508.066038432531, -5958.315111906268, -5891.268055450637, -1503.7950726831332, 0.0, 0.01600000075995922, 0.9920000471174717, 0.0, 0.0, 0.0, 0.0, 0.0, 1.6670493840150888E9, 0.0, 2022-10-29 15:16:24.015
24.0, -1636.7260767081752, -6181.661937260069, -6095.646108229179, -1633.4648839468136, 0.0, 0.01600000075995922, 0.9920000471174717, 0.0, 0.0, 0.0, 0.0, 0.0, 1.6670493840158813E9, 0.0, 2022-10-29 15:16:24.015
24.0, -1581.4709248128347, -6287.8246073522605, -6229.745830990374, -1570.6626139408909, 0.0, 0.01600000075995922, 0.9920000471174717, 0.0, 0.0, 0.0, 0.0, 0.0, 1.6670493840158813E9, 0.0, 2022-10-29 15:16:24.015
25.0, -1371.8158731968142, -6399.817781475373, -6341.4697323166765, -1359.9229913377203, 0.0, 0.01600000075995922, 0.9920000471174717, 0.0, 0.0, 0.0, 0.0, 0.0, 1.6670493840294063E9, 0.0, 2022-10-29 15:16:24.029
25.0, -1520.3665693867952, -6465.209932200611, -6387.354564873036, -1511.794718688354, 0.0, 0.01600000075995922, 0.9920000471174717, 0.0, 0.0, 0.0, 0.0, 0.0, 1.6670493840294063E9, 0.0, 2022-10-29 15:16:24.029
26.0, -1646.389978193678, -6669.374810681678, -6586.504237513524, -1640.6155726620927, 0.0, 0.01600000075995922, 0.9920000471174717, 0.0, 0.0, 0.0, 0.0, 0.0, 1.6670493840452168E9, 0.0, 2022-10-29 15:16:24.045
26.0, -1582.7424907977693, -6773.719889395405, -6712.709031468257, -1581.070755517576, 0.0, 0.01600000075995922, 0.9920000471174717, 0.0, 0.0, 0.0, 0.0, 0.0, 1.6670493840452168E9, 0.0, 2022-10-29 15:16:24.045
27.0, -1368.767854732927, -6882.433171257377, -6820.749131338205, -1359.3657462443225, 0.0, 0.01600000075995922, 0.9920000471174717, 0.0, 0.0, 0.0, 0.0, 0.0, 1.66704938404582E9, 0.0, 2022-10-29 15:16:24.045
27.0, -1513.9863000623882, -6938.464352393523, -6853.144144754391, -1507.9837606335059, 0.0, 0.01600000075995922, 0.9920000471174717, 0.0, 0.0, 0.0, 0.0, 0.0, 1.66704938404582E9, 0.0, 2022-10-29 15:16:24.045
28.0, -1633.2891086488962, -7153.430061946623, -7075.5372956194915, -1630.0653148870915, 0.0, 0.01600000075995922, 0.9920000471174717, 0.0, 0.0, 0.0, 0.0, 0.0, 1.667049384059348E9, 0.0, 2022-10-29 15:16:24.059
28.0, -1586.545969052706, -7272.278472688515, -7218.1901695793495, -1584.8368347729556, 0.0, 0.01600000075995922, 0.9920000471174717, 0.0, 0.0, 0.0, 0.0, 0.0, 1.667049384059348E9, 0.0, 2022-10-29 15:16:24.059
29.0, -1361.2955346214585, -7379.38359756954, -7321.61149300402, -1353.9952499079518, 0.0, 0.01600000075995922, 0.9920000471174717, 0.0, 0.0, 0.0, 0.0, 0.0, 1.6670493840751505E9, 0.0, 2022-10-29 15:16:24.075
29.0, -1514.7193204537034, -7443.9754097042605, -7367.41778766131, -1507.4003362404183, 0.0, 0.01600000075995922, 0.9920000471174717, 0.0, 0.0, 0.0, 0.0, 0.0, 1.6670493840751505E9, 0.0, 2022-10-29 15:16:24.075
30.0, -1648.0691932737827, -7645.9300073115155, -7572.5176411313005, -1638.9176580822095, 0.0, 0.01600000075995922, 0.9920000471174717, 0.0, 0.0, 0.0, 0.0, 0.0, 1.6670493840758977E9, 0.0, 2022-10-29 15:16:24.075
30.0, -1583.7148647862487, -7760.167121408042, -7704.433262318373, -1577.6225677584298, 0.0, 0.01600000075995922, 0.9920000471174717, 0.0, 0.0, 0.0, 0.0, 0.0, 1.6670493840758977E9, 0.0, 2022-10-29 15:16:24.075
31.0, -1365.125192176085, -7877.5532312672585, -7820.5066672931425, -1361.3179740211926, 0.0, 0.01600000075995922, 0.9920000471174717, 0.0, 0.0, 0.0, 0.0, 0.0, 1.6670493840896435E9, 0.0, 2022-10-29 15:16:24.089
31.0, -1518.9566271035, -7948.525312726386, -7864.371953873429, -1516.061944537796, 0.0, 0.01600000075995922, 0.9920000471174717, 0.0, 0.0, 0.0, 0.0, 0.0, 1.6670493840896435E9, 0.0, 2022-10-29 15:16:24.089
32.0, -1652.0297473268583, -8152.716370507143, -8063.072838519234, -1648.1552109727636, 0.0, 0.01600000075995922, 0.9920000471174717, 0.0, 0.0, 0.0, 0.0, 0.0, 1.6670493841052253E9, 0.0, 2022-10-29 15:16:24.105
32.0, -1582.3423215025105, -8252.001364580821, -8196.177747892216, -1578.8155958442949, 0.0, 0.01600000075995922, 0.9920000471174717, 0.0, 0.0, 0.0, 0.0, 0.0, 1.6670493841052253E9, 0.0, 2022-10-29 15:16:24.105
33.0, -1367.3728720494546, -8358.960633363575, -8305.919502242003, -1360.0800671358593, 0.0, 0.01600000075995922, 0.9920000471174717, 0.0, 0.0, 0.0, 0.0, 0.0, 1.667049384105988E9, 0.0, 2022-10-29 15:16:24.105
33.0, -1522.3898552628234, -8428.59009073861, -8343.213784600142, -1517.7075005182996, 0.0, 0.01600000075995922, 0.9920000471174717, 0.0, 0.0, 0.0, 0.0, 0.0, 1.667049384105988E9, 0.0, 2022-10-29 15:16:24.105
34.0, -1644.4153110170737, -8625.110613710247, -8546.26791279437, -1639.5459612747654, 0.0, 0.01600000075995922, 0.9920000471174717, 0.0, 0.0, 0.0, 0.0, 0.0, 1.6670493841196425E9, 0.0, 2022-10-29 15:16:24.119
34.0, -1590.947831300553, -8746.842487317976, -8684.960232701153, -1583.999097182881, 0.0, 0.01600000075995922, 0.9920000471174717, 0.0, 0.0, 0.0, 0.0, 0.0, 1.6670493841196425E9, 0.0, 2022-10-29 15:16:24.119
35.0, -1354.0064696078189, -8856.83855486475, -8795.764118638355, -1357.2265234696679, 0.0, 0.01600000075995922, 0.9920000471174717, 0.0, 0.0, 0.0, 0.0, 0.0, 1.6670493841350963E9, 0.0, 2022-10-29 15:16:24.135
35.0, -1524.1176890423521, -8924.115615167655, -8838.466296332423, -1520.9163346802816, 0.0, 0.01600000075995922, 0.9920000471174717, 0.0, 0.0, 0.0, 0.0, 0.0, 1.6670493841350963E9, 0.0, 2022-10-29 15:16:24.135
36.0, -1651.7305553304031, -9118.029427870177, -9042.017831220757, -1644.3554726177827, 0.0, 0.01600000075995922, 0.9920000471174717, 0.0, 0.0, 0.0, 0.0, 0.0, 1.667049384135769E9, 0.0, 2022-10-29 15:16:24.135
36.0, -1586.2018982567824, -9236.298154118937, -9172.964818319306, -1575.3075696858577, 0.0, 0.01600000075995922, 0.9920000471174717, 0.0, 0.0, 0.0, 0.0, 0.0, 1.667049384135769E9, 0.0, 2022-10-29 15:16:24.135
37.0, -1359.1263926471584, -9344.798261683434, -9292.28819635557, -1346.3733337982558, 0.0, 0.01600000075995922, 0.9920000471174717, 0.0, 0.0, 0.0, 0.0, 0.0, 1.6670493841494887E9, 0.0, 2022-10-29 15:16:24.149
37.0, -1524.1775274416432, -9424.46561053954, -9340.233713787515, -1519.9551803916693, 0.0, 0.01600000075995922, 0.9920000471174717, 0.0, 0.0, 0.0, 0.0, 0.0, 1.6670493841494887E9, 0.0, 2022-10-29 15:16:24.149
38.0, -1650.8142798412591, -9613.56617199909, -9526.641547278967, -1651.057373338379, 0.0, 0.01600000075995922, 0.9920000471174717, 0.0, 0.0, 0.0, 0.0, 0.0, 1.6670493841651888E9, 0.0, 2022-10-29 15:16:24.165
38.0, -1585.7044915626757, -9721.116344974842, -9659.802555151284, -1579.5934950350784, 0.0, 0.01600000075995922, 0.9920000471174717, 0.0, 0.0, 0.0, 0.0, 0.0, 1.6670493841651888E9, 0.0, 2022-10-29 15:16:24.165
39.0, -1353.5614215130918, -9823.572774210945, -9774.185525346082, -1344.3425681223162, 0.0, 0.01600000075995922, 0.9920000471174717, 0.0, 0.0, 0.0, 0.0, 0.0, 1.6670493841658733E9, 0.0, 2022-10-29 15:16:24.165
39.0, -1511.757319688797, -9880.800723332912, -9810.111004320439, -1503.9596282811835, 0.0, 0.01600000075995922, 0.9920000471174717, 0.0, 0.0, 0.0, 0.0, 0.0, 1.6670493841658733E9, 0.0, 2022-10-29 15:16:24.165
40.0, -1652.5458535207435, -10086.884170491248, -10009.597267956939, -1645.64199820254, 0.0, 0.01600000075995922, 0.9920000471174717, 0.0, 0.0, 0.0, 0.0, 0.0, 1.6670493841794257E9, 0.0, 2022-10-29 15:16:24.179
40.0, -1588.0718482346274, -10195.3206997565, -10134.036829132587, -1576.4594588722102, 0.0, 0.01600000075995922, 0.9920000471174717, 0.0, 0.0, 0.0, 0.0, 0.0, 1.6670493841794257E9, 0.0, 2022-10-29 15:16:24.179
41.0, -1352.5516485250555, -10343.643262049183, -10274.408364119474, -1350.6929182470776, 0.0, 0.01600000075995922, 0.9920000471174717, 0.0, 0.0, 0.0, 0.0, 0.0, 1.66704938419518E9, 0.0, 2022-10-29 15:16:24.195
41.0, -1523.8110172459856, -10410.54633235652, -10314.339275946375, -1516.0956036373973, 0.0, 0.01600000075995922, 0.9920000471174717, 0.0, 0.0, 0.0, 0.0, 0.0, 1.66704938419518E9, 0.0, 2022-10-29 15:16:24.195
42.0, -1650.7656611418352, -10583.086616812274, -10504.09431989817, -1643.0951263327152, 0.0, 0.01600000075995922, 0.9920000471174717, 0.0, 0.0, 0.0, 0.0, 0.0, 1.6670493841960373E9, 0.0, 2022-10-29 15:16:24.196
42.0, -1582.9369655954652, -10680.381984109525, -10639.60398494266, -1578.235911351163, 0.0, 0.01600000075995922, 0.9920000471174717, 0.0, 0.0, 0.0, 0.0, 0.0, 1.6670493841960373E9, 0.0, 2022-10-29 15:16:24.196
43.0, -1347.9702710793354, -10807.308578755707, -10755.658690417651, -1341.8031760524027, 0.0, 0.01600000075995922, 0.9920000471174717, 0.0, 0.0, 0.0, 0.0, 0.0, 1.667049384209462E9, 0.0, 2022-10-29 15:16:24.209
43.0, -1513.567431267351, -10873.695542869158, -10794.209579160903, -1501.8839838057756, 0.0, 0.01600000075995922, 0.9920000471174717, 0.0, 0.0, 0.0, 0.0, 0.0, 1.667049384209462E9, 0.0, 2022-10-29 15:16:24.209
44.0, -1656.7046222714707, -11088.967924218625, -11000.251887419727, -1647.4296703813598, 0.0, 0.01600000075995922, 0.9920000471174717, 0.0, 0.0, 0.0, 0.0, 0.0, 1.6670493842251391E9, 0.0, 2022-10-29 15:16:24.225
44.0, -1588.7300706268288, -11183.809917144943, -11123.221667912789, -1565.703506599646, 0.0, 0.01600000075995922, 0.9920000471174717, 0.0, 0.0, 0.0, 0.0, 0.0, 1.6670493842251391E9, 0.0, 2022-10-29 15:16:24.225
45.0, -1343.7030452298932, -11302.856542584486, -11249.733133663889, -1336.6944727129303, 0.0, 0.01600000075995922, 0.9920000471174717, 0.0, 0.0, 0.0, 0.0, 0.0, 1.6670493842258155E9, 0.0, 2022-10-29 15:16:24.225
45.0, -1515.7440530415624, -11383.088616333902, -11291.062768074218, -1516.0208056382835, 0.0, 0.01600000075995922, 0.9920000471174717, 0.0, 0.0, 0.0, 0.0, 0.0, 1.6670493842258155E9, 0.0, 2022-10-29 15:16:24.225
46.0, -1659.7077619358897, -11568.972863831557, -11489.969347217586, -1646.894864687696, 0.0, 0.01600000075995922, 0.9920000471174717, 0.0, 0.0, 0.0, 0.0, 0.0, 1.6670493842394345E9, 0.0, 2022-10-29 15:16:24.239
46.0, -1588.9656843240373, -11663.81111685792, -11619.27077833563, -1581.8972734077834, 0.0, 0.01600000075995922, 0.9920000471174717, 0.0, 0.0, 0.0, 0.0, 0.0, 1.6670493842394345E9, 0.0, 2022-10-29 15:16:24.239
47.0, -1347.577581583988, -11799.3469612021, -11741.298104039859, -1824.8093853797764, 0.0, 0.01600000075995922, 0.9920000471174717, 0.0, 0.0, 0.0, 0.0, 0.0, 1.667049384255102E9, 0.0, 2022-10-29 15:16:24.255
47.0, -1519.6260691955686, -11878.172832568176, -11793.379950822797, -2007.3894312665798, 0.0, 0.01600000075995922, 0.9920000471174717, 0.0, 0.0, 0.0, 0.0, 0.0, 1.667049384255102E9, 0.0, 2022-10-29 15:16:24.255
48.0, -1654.2362883007154, -12060.36205890961, -11985.083482651506, -2141.8687538732775, 0.0, 0.01600000075995922, 0.9920000471174717, 0.0, 0.0, 0.0, 0.0, 0.0, 1.6670493842559116E9, 0.0, 2022-10-29 15:16:24.255
48.0, -1593.5545415696688, -12165.64959241217, -12114.796302764677, -2074.9077151166275, 0.0, 0.01600000075995922, 0.9920000471174717, 0.0, 0.0, 0.0, 0.0, 0.0, 1.6670493842559116E9, 0.0, 2022-10-29 15:16:24.255
49.0, -1354.5150960017927, -12280.069961606525, -12231.26613713475, -1837.910254924558, 0.0, 0.01600000075995922, 0.9920000471174717, 0.0, 0.0, 0.0, 0.0, 0.0, 1.6670493842695675E9, 0.0, 2022-10-29 15:16:24.269
49.0, -1512.142529384233, -12339.418434003368, -12261.174117080402, -1995.7022439050488, 0.0, 0.01600000075995922, 0.9920000471174717, 0.0, 0.0, 0.0, 0.0, 0.0, 1.6670493842695675E9, 0.0, 2022-10-29 15:16:24.269
50.0, -1657.497481062077, -12552.641350177117, -12466.303889750037, -2134.650746958796, 0.0, 0.01600000075995922, 0.9920000471174717, 0.0, 0.0, 0.0, 0.0, 0.0, 1.6670493842851636E9, 0.0, 2022-10-29 15:16:24.285
50.0, -1593.9883699645288, -12657.304320387077, -12598.780495930463, -2073.5202122330666, 0.0, 0.01600000075995922, 0.9920000471174717, 0.0, 0.0, 0.0, 0.0, 0.0, 1.6670493842851636E9, 0.0, 2022-10-29 15:16:24.285
51.0, -1837.1921941330656, -12782.50308125373, -12720.796601934824, -1828.792378832586, 0.0, 0.03200000151991844, 0.9920000471174717, 0.0, 0.0, 0.0, 0.0, 0.0, 1.6670493842859247E9, 0.0, 2022-10-29 15:16:24.285
51.0, -2007.4380499660037, -12839.14760598261, -12761.352077054325, -1998.4922092719935, 0.0, 0.03200000151991844, 0.9920000471174717, 0.0, 0.0, 0.0, 0.0, 0.0, 1.6670493842859247E9, 0.0, 2022-10-29 15:16:24.285
52.0, -2150.7210970683955, -13048.67176110018, -12960.48679009499, -2143.8733402495272, 0.0, 0.03200000151991844, 0.9920000471174717, 0.0, 0.0, 0.0, 0.0, 0.0, 1.667049384299505E9, 0.0, 2022-10-29 15:16:24.299
52.0, -2076.470993298106, -13135.465489321854, -13080.389852624387, -2081.2244061417878, 0.0, 0.03200000151991844, 0.9920000471174717, 0.0, 0.0, 0.0, 0.0, 0.0, 1.667049384299505E9, 0.0, 2022-10-29 15:16:24.299
53.0, -1838.9462072122842, -13263.68982925266, -13212.873938604724, -2320.901504652109, 0.0, 0.03200000151991844, 0.9920000471174717, 0.0, 0.0, 0.0, 0.0, 0.0, 1.6670493843151212E9, 0.0, 2022-10-29 15:16:24.315
53.0, -2002.6173189231195, -13333.177170429379, -13262.734284813982, -2488.7800038130954, 0.0, 0.03200000151991844, 0.9920000471174717, 0.0, 0.0, 0.0, 0.0, 0.0, 1.6670493843151212E9, 0.0, 2022-10-29 15:16:24.315
54.0, -2160.833786548581, -13535.24770493526, -13459.0453733881, -2641.192146707326, 0.0, 0.03200000151991844, 0.9920000471174717, 0.0, 0.0, 0.0, 0.0, 0.0, 1.6670493843157704E9, 0.0, 2022-10-29 15:16:24.315
54.0, -2087.8028901638463, -13636.701840983238, -13572.878578289412, -2563.9052441730164, 0.0, 0.03200000151991844, 0.9920000471174717, 0.0, 0.0, 0.0, 0.0, 0.0, 1.6670493843157704E9, 0.0, 2022-10-29 15:16:24.315
55.0, -2324.6713238074444, -13759.877315973863, -13698.739301448222, -2801.1364481123164, 0.0, 0.03200000151991844, 0.9920000471174717, 0.0, 0.0, 0.0, 0.0, 0.0, 1.6670493843293493E9, 0.0, 2022-10-29 15:16:24.329
55.0, -2497.011523615569, -13819.689535965212, -13741.721971638966, -2977.7887525693513, 0.0, 0.03200000151991844, 0.9920000471174717, 0.0, 0.0, 0.0, 0.0, 0.0, 1.6670493843293493E9, 0.0, 2022-10-29 15:16:24.329
56.0, -2637.758918548003, -14013.038623774424, -13939.327065597754, -3119.901210985612, 0.0, 0.03200000151991844, 0.9920000471174717, 0.0, 0.0, 0.0, 0.0, 0.0, 1.6670493843450327E9, 0.0, 2022-10-29 15:16:24.345
56.0, -2579.56420528749, -14135.567096072715, -14072.334737571888, -3061.9308917224407, 0.0, 0.03200000151991844, 0.9920000471174717, 0.0, 0.0, 0.0, 0.0, 0.0, 1.6670493843450327E9, 0.0, 2022-10-29 15:16:24.345
57.0, -2818.171692410484, -14258.993144360371, -14191.05225181533, -3294.853730912786, 0.0, 0.03200000151991844, 0.9920000471174717, 0.0, 0.0, 0.0, 0.0, 0.0, 1.667049384345795E9, 0.0, 2022-10-29 15:16:24.345
57.0, -2990.410914919805, -14328.746018433943, -14226.757076692302, -3472.833699854091, 0.0, 0.03200000151991844, 0.9920000471174717, 0.0, 0.0, 0.0, 0.0, 0.0, 1.667049384345795E9, 0.0, 2022-10-29 15:16:24.345
58.0, -3135.5900912997313, -14503.997730357572, -14438.959000178147, -3617.343434141949, 0.0, 0.03200000151991844, 0.9920000471174717, 0.0, 0.0, 0.0, 0.0, 0.0, 1.6670493843594205E9, 0.0, 2022-10-29 15:16:24.359
58.0, -3064.8180944882333, -14605.41820730595, -14560.006472093984, -3546.994046025444, 0.0, 0.03200000151991844, 0.9920000471174717, 0.0, 0.0, 0.0, 0.0, 0.0, 1.6670493843594205E9, 0.0, 2022-10-29 15:16:24.359
59.0, -3305.744319583755, -14756.889765361324, -14691.331189088058, -3782.4338378859684, 0.0, 0.03200000151991844, 0.9920000471174717, 0.0, 0.0, 0.0, 0.0, 0.0, 1.6670493843753147E9, 0.0, 2022-10-29 15:16:24.375
59.0, -3483.2829803302884, -14817.77159674, -14726.344132473227, -3965.638447065372, 0.0, 0.03200000151991844, 0.9920000471174717, 0.0, 0.0, 0.0, 0.0, 0.0, 1.6670493843753147E9, 0.0, 2022-10-29 15:16:24.375
60.0, -3612.8966930946335, -14982.865740383975, -14895.78777976567, -4105.121755812783, 0.0, 0.03200000151991844, 0.9920000471174717, 0.0, 0.0, 0.0, 0.0, 0.0, 1.6670493843758888E9, 0.0, 2022-10-29 15:16:24.375
60.0, -3549.7690517925657, -15083.7588914386, -15027.66974185314, -4027.958269977011, 0.0, 0.03200000151991844, 0.9920000471174717, 0.0, 0.0, 0.0, 0.0, 0.0, 1.6670493843758888E9, 0.0, 2022-10-29 15:16:24.375
61.0, -3784.9919294556603, -15218.21016479563, -15161.866702013183, -4266.707873298321, 0.0, 0.01600000075995922, 0.9920000471174717, 0.0, 0.0, 0.0, 0.0, 0.0, 1.667049384389438E9, 0.0, 2022-10-29 15:16:24.389
61.0, -3968.076861836482, -15282.25595153682, -15210.212388740387, -4453.177415139042, 0.0, 0.01600000075995922, 0.9920000471174717, 0.0, 0.0, 0.0, 0.0, 0.0, 1.667049384389438E9, 0.0, 2022-10-29 15:16:24.389
62.0, -4109.912567656022, -15477.235635726713, -15406.003631220665, -4606.139323326759, 0.0, 0.01600000075995922, 0.9920000471174717, 0.0, 0.0, 0.0, 0.0, 0.0, 1.6670493844050827E9, 0.0, 2022-10-29 15:16:24.405
62.0, -4043.490074492991, -15582.998136523645, -15536.206378228031, -4529.136653189082, 0.0, 0.01600000075995922, 0.9920000471174717, 0.0, 0.0, 0.0, 0.0, 0.0, 1.6670493844050827E9, 0.0, 2022-10-29 15:16:24.405
63.0, -4273.91092061298, -15718.679836966097, -15664.808448054362, -4758.315852523781, 0.0, 0.01600000075995922, 0.9920000471174717, 0.0, 0.0, 0.0, 0.0, 0.0, 1.667049384405795E9, 0.0, 2022-10-29 15:16:24.405
63.0, -4464.9281807998195, -15796.394958045334, -15711.49361920124, -4948.5701731196605, 0.0, 0.01600000075995922, 0.9920000471174717, 0.0, 0.0, 0.0, 0.0, 0.0, 1.667049384405795E9, 0.0, 2022-10-29 15:16:24.405
64.0, -4603.663509556092, -15974.515173234977, -15891.304269170854, -5093.850326798391, 0.0, 0.01600000075995922, 0.9920000471174717, 0.0, 0.0, 0.0, 0.0, 0.0, 1.6670493844194288E9, 0.0, 2022-10-29 15:16:24.419
64.0, -4527.225564311724, -16076.803306973074, -16013.013703378849, -5021.384155306965, 0.0, 0.01600000075995922, 0.9920000471174717, 0.0, 0.0, 0.0, 0.0, 0.0, 1.6670493844194288E9, 0.0, 2022-10-29 15:16:24.419
65.0, -4760.671989495866, -16198.452902781777, -16146.055034452584, -5242.874120332766, 0.0, 0.01600000075995922, 0.9920000471174717, 0.0, 0.0, 0.0, 0.0, 0.0, 1.6670493844358115E9, 0.0, 2022-10-29 15:16:24.435
65.0, -4944.250588670839, -16247.011763806455, -16181.471887032967, -5427.541030394845, 0.0, 0.01600000075995922, 0.9920000471174717, 0.0, 0.0, 0.0, 0.0, 0.0, 1.6670493844358115E9, 0.0, 2022-10-29 15:16:24.435
66.0, -5092.058914719615, -16441.38184430357, -16378.774049095344, -5572.551911276765, 0.0, 0.01600000075995922, 0.9920000471174717, 0.0, 0.0, 0.0, 0.0, 0.0, 1.6670493844364662E9, 0.0, 2022-10-29 15:16:24.436
66.0, -5020.086410022341, -16550.177403964568, -16503.11263297219, -5501.533081068192, 0.0, 0.01600000075995922, 0.9920000471174717, 0.0, 0.0, 0.0, 0.0, 0.0, 1.6670493844364662E9, 0.0, 2022-10-29 15:16:24.436
67.0, -5240.147733265068, -16692.022459533997, -16640.941035989206, -5721.964654406533, 0.0, 0.01600000075995922, 0.9920000471174717, 0.0, 0.0, 0.0, 0.0, 0.0, 1.667049384449489E9, 0.0, 2022-10-29 15:16:24.449
67.0, -5445.084901086986, -16780.938580980524, -16694.11867345916, -5924.366170058493, 0.0, 0.01600000075995922, 0.9920000471174717, 0.0, 0.0, 0.0, 0.0, 0.0, 1.667049384449489E9, 0.0, 2022-10-29 15:16:24.449
68.0, -5583.47241914738, -16946.80314401537, -16877.66548348451, -6072.099698108155, 0.0, 0.01600000075995922, 0.9920000471174717, 0.0, 0.0, 0.0, 0.0, 0.0, 1.6670493844651325E9, 0.0, 2022-10-29 15:16:24.465
68.0, -5509.87305796938, -17035.10405191919, -16995.904290533625, -5991.843315009028, 0.0, 0.01600000075995922, 0.9920000471174717, 0.0, 0.0, 0.0, 0.0, 0.0, 1.6670493844651325E9, 0.0, 2022-10-29 15:16:24.465
69.0, -5738.173380814493, -17168.64278968703, -17127.81617182074, -6220.637304648291, 0.0, 0.01600000075995922, 0.9920000471174717, 0.0, 0.0, 0.0, 0.0, 0.0, 1.6670493844657834E9, 0.0, 2022-10-29 15:16:24.465
69.0, -5929.142022301909, -17262.25248557795, -17179.36695280997, -6414.261275104247, 0.0, 0.01600000075995922, 0.9920000471174717, 0.0, 0.0, 0.0, 0.0, 0.0, 1.6670493844657834E9, 0.0, 2022-10-29 15:16:24.465
70.0, -6070.835611923132, -17430.03935719002, -17363.20173513191, -6558.44563809596, 0.0, 0.01600000075995922, 0.9920000471174717, 0.0, 0.0, 0.0, 0.0, 0.0, 1.6670493844958658E9, 0.0, 2022-10-29 15:16:24.495
70.0, -6005.998836341314, -17530.50241974974, -17491.41111546289, -6486.106623203028, 0.0, 0.01600000075995922, 0.9920000471174717, 0.0, 0.0, 0.0, 0.0, 0.0, 1.6670493844958658E9, 0.0, 2022-10-29 15:16:24.495
71.0, -6228.51727385493, -17676.300549572334, -17631.812569649424, -6717.499843311496, 0.0, 0.01600000075995922, 0.9920000471174717, 0.0, 0.0, 0.0, 0.0, 0.0, 1.667049384496518E9, 0.0, 2022-10-29 15:16:24.496
71.0, -6425.050886476412, -17757.856547906063, -17675.718995129224, -6907.5335098099895, 0.0, 0.01600000075995922, 0.9920000471174717, 0.0, 0.0, 0.0, 0.0, 0.0, 1.667049384496518E9, 0.0, 2022-10-29 15:16:24.496
72.0, -6571.6100859399885, -17924.74584352877, -17862.474639316555, -7052.600489191245, 0.0, 0.01600000075995922, 0.9920000471174717, 0.0, 0.0, 0.0, 0.0, 0.0, 1.6670493844972525E9, 0.0, 2022-10-29 15:16:24.497
72.0, -6497.389901369344, -18024.93215349177, -17985.515477908775, -6982.752247668803, 0.0, 0.01600000075995922, 0.9920000471174717, 0.0, 0.0, 0.0, 0.0, 0.0, 1.6670493844972525E9, 0.0, 2022-10-29 15:16:24.497
73.0, -6721.666091862135, -18174.61977926828, -18126.79206868494, -7200.715487036388, 0.0, 0.01600000075995922, 0.9920000471174717, 0.0, 0.0, 0.0, 0.0, 0.0, 1.6670493845094144E9, 0.0, 2022-10-29 15:16:24.509
73.0, -6910.117780679371, -18237.44261872396, -18158.031453014817, -7395.771839175373, 0.0, 0.01600000075995922, 0.9920000471174717, 0.0, 0.0, 0.0, 0.0, 0.0, 1.6670493845094144E9, 0.0, 2022-10-29 15:16:24.509
74.0, -7062.754317570943, -18416.06772040762, -18348.94212605292, -7543.591384924017, 0.0, 0.01600000075995922, 0.9920000471174717, 0.0, 0.0, 0.0, 0.0, 0.0, 1.6670493845251157E9, 0.0, 2022-10-29 15:16:24.525
74.0, -6986.402390025556, -18520.397839521524, -18471.197585654445, -7464.460711711552, 0.0, 0.01600000075995922, 0.9920000471174717, 0.0, 0.0, 0.0, 0.0, 0.0, 1.6670493845251157E9, 0.0, 2022-10-29 15:16:24.525
75.0, -7204.8742557871155, -18656.47596935928, -18608.696877475362, -7688.1422581113875, 0.0, 0.01600000075995922, 0.9920000471174717, 0.0, 0.0, 0.0, 0.0, 0.0, 1.667049384526018E9, 0.0, 2022-10-29 15:16:24.526
75.0, -7402.761712192558, -18724.871259748936, -18654.334876634646, -7888.004381693434, 0.0, 0.01600000075995922, 0.9920000471174717, 0.0, 0.0, 0.0, 0.0, 0.0, 1.667049384526018E9, 0.0, 2022-10-29 15:16:24.526
76.0, -7550.618656940758, -18924.65671538189, -18839.84887403669, -8033.658525367733, 0.0, 0.01600000075995922, 0.9920000471174717, 0.0, 0.0, 0.0, 0.0, 0.0, 1.6670493845393305E9, 0.0, 2022-10-29 15:16:24.539
76.0, -7487.18808374228, -19016.63394494215, -18961.633106243797, -7973.866874826141, 0.0, 0.01600000075995922, 0.9920000471174717, 0.0, 0.0, 0.0, 0.0, 0.0, 1.6670493845393305E9, 0.0, 2022-10-29 15:16:24.539
77.0, -7691.751261568628, -19143.777453785762, -19092.408057944383, -8173.6168014095165, 0.0, 0.01600000075995922, 0.9920000471174717, 0.0, 0.0, 0.0, 0.0, 0.0, 1.6670493845550838E9, 0.0, 2022-10-29 15:16:24.555
77.0, -7888.961796082091, -19200.923125108704, -19137.40279431129, -8371.201325918548, 0.0, 0.01600000075995922, 0.9920000471174717, 0.0, 0.0, 0.0, 0.0, 0.0, 1.6670493845550838E9, 0.0, 2022-10-29 15:16:24.555
78.0, -8038.804627706762, -19397.095837384462, -19325.10463318741, -8520.131621954031, 0.0, 0.01600000075995922, 0.9920000471174717, 0.0, 0.0, 0.0, 0.0, 0.0, 1.6670493845558972E9, 0.0, 2022-10-29 15:16:24.555
78.0, -7958.062057613395, -19488.699076949153, -19440.029888875782, -8441.494615535717, 0.0, 0.01600000075995922, 0.9920000471174717, 0.0, 0.0, 0.0, 0.0, 0.0, 1.6670493845558972E9, 0.0, 2022-10-29 15:16:24.555
79.0, -8187.56662824424, -19643.91801476013, -19602.21626030421, -8667.06107151322, 0.0, 0.01600000075995922, 0.9920000471174717, 0.0, 0.0, 0.0, 0.0, 0.0, 1.667049384569432E9, 0.0, 2022-10-29 15:16:24.569
79.0, -8398.083726800047, -19730.638814932667, -19658.333459139336, -8878.595422856975, 0.0, 0.01600000075995922, 0.9920000471174717, 0.0, 0.0, 0.0, 0.0, 0.0, 1.667049384569432E9, 0.0, 2022-10-29 15:16:24.569
80.0, -8538.868520732038, -19897.53185045533, -19818.92476323666, -9031.157161749434, 0.0, 0.01600000075995922, 0.9920000471174717, 0.0, 0.0, 0.0, 0.0, 0.0, 1.6670493845851104E9, 0.0, 2022-10-29 15:16:24.585
80.0, -8453.907343488652, -19978.65215044422, -19920.079707288183, -8940.56369517278, 0.0, 0.01600000075995922, 0.9920000471174717, 0.0, 0.0, 0.0, 0.0, 0.0, 1.6670493845851104E9, 0.0, 2022-10-29 15:16:24.585
81.0, -8670.172668276355, -20129.375728508458, -20063.48804103909, -9156.036161169875, 0.0, 0.01600000075995922, 0.9920000471174717, 0.0, 0.0, 0.0, 0.0, 0.0, 1.6670493845859532E9, 0.0, 2022-10-29 15:16:24.585
81.0, -8869.226973467972, -20187.063685324974, -20110.610780480783, -9362.304733376019, 0.0, 0.01600000075995922, 0.9920000471174717, 0.0, 0.0, 0.0, 0.0, 0.0, 1.6670493845859532E9, 0.0, 2022-10-29 15:16:24.585
82.0, -9030.461540357675, -20393.46128407959, -20312.13154969318, -9504.847280287184, 0.0, 0.01600000075995922, 0.9920000471174717, 0.0, 0.0, 0.0, 0.0, 0.0, 1.6670493845994074E9, 0.0, 2022-10-29 15:16:24.599
82.0, -8957.767234968953, -20472.19552789675, -20413.525847341865, -9440.814583195839, 0.0, 0.01600000075995922, 0.9920000471174717, 0.0, 0.0, 0.0, 0.0, 0.0, 1.6670493845994074E9, 0.0, 2022-10-29 15:16:24.599
83.0, -9159.01686143456, -20617.92633952014, -20560.053257655818, -9641.978191962466, 0.0, 0.01600000075995922, 0.9920000471174717, 0.0, 0.0, 0.0, 0.0, 0.0, 1.667049384615043E9, 0.0, 2022-10-29 15:16:24.615
83.0, -9349.155245131813, -20679.94136058539, -20598.5592675996, -9829.939953885507, 0.0, 0.01600000075995922, 0.9920000471174717, 0.0, 0.0, 0.0, 0.0, 0.0, 1.667049384615043E9, 0.0, 2022-10-29 15:16:24.615
84.0, -9514.182070576586, -20868.5893941503, -20791.983153407928, -10000.98801825894, 0.0, 0.01600000075995922, 0.9920000471174717, 0.0, 0.0, 0.0, 0.0, 0.0, 1.6670493846158512E9, 0.0, 2022-10-29 15:16:24.615
84.0, -9441.633621286135, -20969.718158902135, -20908.04533868283, -9925.316752505489, 0.0, 0.01600000075995922, 0.9920000471174717, 0.0, 0.0, 0.0, 0.0, 0.0, 1.6670493846158512E9, 0.0, 2022-10-29 15:16:24.615
85.0, -9649.91425966844, -21136.792579572648, -21063.675665488932, -10142.775105379056, 0.0, 0.01600000075995922, 0.9920000471174717, 0.0, 0.0, 0.0, 0.0, 0.0, 1.6670493846294816E9, 0.0, 2022-10-29 15:16:24.629
85.0, -9851.579015029129, -21176.81698889844, -21096.822398796212, -10334.83953755349, 0.0, 0.01600000075995922, 0.9920000471174717, 0.0, 0.0, 0.0, 0.0, 0.0, 1.6670493846294816E9, 0.0, 2022-10-29 15:16:24.629
86.0, -10003.403993630316, -21348.455957464874, -21271.808577822987, -10489.28244612366, 0.0, 0.01600000075995922, 0.9920000471174717, 0.0, 0.0, 0.0, 0.0, 0.0, 1.6670493846451027E9, 0.0, 2022-10-29 15:16:24.645
86.0, -9930.941562038846, -21445.85230206093, -21391.442367555574, -10416.101953740697, 0.0, 0.01600000075995922, 0.9920000471174717, 0.0, 0.0, 0.0, 0.0, 0.0, 1.6670493846451027E9, 0.0, 2022-10-29 15:16:24.645
87.0, -10130.32871832652, -21588.583713919856, -21538.414825964253, -10611.09098768048, 0.0, 0.01600000075995922, 0.9920000471174717, 0.0, 0.0, 0.0, 0.0, 0.0, 1.6670493846459167E9, 0.0, 2022-10-29 15:16:24.645
87.0, -10340.737359783612, -21667.61901968345, -21592.35540302517, -10822.666477923747, 0.0, 0.01600000075995922, 0.9920000471174717, 0.0, 0.0, 0.0, 0.0, 0.0, 1.6670493846459167E9, 0.0, 2022-10-29 15:16:24.645
