%OpenBCI Raw EEG Data
%Number of channels = 4
%Sample Rate = 200 Hz
%Board = OpenBCI_GUI$BoardGanglionBLE
Sample Index, EXG Channel 0, EXG Channel 1, EXG Channel 2, EXG Channel 3, Accel Channel 0, Accel Channel 1, Accel Channel 2, Other, Other, Other, Other, Other, Timestamp, Other, Timestamp (Formatted)
0.0, 0.0, -347.4385758335702, -353.1774523155764, -2818.4652745570056, 0.0, 0.0, 0.0, 0.0, 0.0, 0.0, 0.0, 0.0, 1.6670498707768612E9, 0.0, 2022-10-29 15:24:30.776
1.0, 0.0, -252.75178875541314, -258.9020542325452, -2665.9035356645472, 0.0, 0.03200000151991844, 0.0, 0.0, 0.0, 0.0, 0.0, 0.0, 1.667049870789962E9, 0.0, 2022-10-29 15:24:30.789
1.0, 0.0, -219.67050369735807, -202.60347024956718, -2820.643766281195, 0.0, 0.03200000151991844, 0.0, 0.0, 0.0, 0.0, 0.0, 0.0, 1.667049870789962E9, 0.0, 2022-10-29 15:24:30.789
2.0, 0.0, -445.88957221712917, -429.83231175737455, -2587.317017895635, 0.0, 0.03200000151991844, 0.0, 0.0, 0.0, 0.0, 0.0, 0.0, 1.6670498708066947E9, 0.0, 2022-10-29 15:24:30.806
2.0, 0.0, -332.7089798580855, -338.00654814532027, -2353.7845750125125, 0.0, 0.03200000151991844, 0.0, 0.0, 0.0, 0.0, 0.0, 0.0, 1.6670498708066947E9, 0.0, 2022-10-29 15:24:30.806
3.0, 0.0, -261.4900650018826, -262.98041513422504, -2177.6016279999167, 0.0, 0.03200000151991844, 0.0, 0.0, 0.0, 0.0, 0.0, 0.0, 1.6670498708073647E9, 0.0, 2022-10-29 15:24:30.807
3.0, 0.0, -200.5951439733617, -178.96543257962912, -2357.8030975149013, 0.0, 0.03200000151991844, 0.0, 0.0, 0.0, 0.0, 0.0, 0.0, 1.6670498708073647E9, 0.0, 2022-10-29 15:24:30.807
4.0, 0.0, 29.941639045253396, 47.543478186707944, -2549.5515081430785, 0.0, 0.03200000151991844, 0.0, 0.0, 0.0, 0.0, 0.0, 0.0, 1.6670498708197427E9, 0.0, 2022-10-29 15:24:30.819
4.0, 0.0, 127.15285859350115, 138.46418600948527, -2327.283643926494, 0.0, 0.03200000151991844, 0.0, 0.0, 0.0, 0.0, 0.0, 0.0, 1.6670498708197427E9, 0.0, 2022-10-29 15:24:30.819
5.0, 0.0, 250.77151172887534, 243.74236976215616, -2188.3014817731455, 0.0, 0.03200000151991844, 0.0, 0.0, 0.0, 0.0, 0.0, 0.0, 1.6670498708354394E9, 0.0, 2022-10-29 15:24:30.835
5.0, 0.0, 313.5102034355514, 331.25041887536645, -2323.1529244254343, 0.0, 0.03200000151991844, 0.0, 0.0, 0.0, 0.0, 0.0, 0.0, 1.6670498708354394E9, 0.0, 2022-10-29 15:24:30.835
6.0, 0.0, 523.9412842923775, 543.8730811062269, -2485.344905703794, 0.0, 0.03200000151991844, 0.0, 0.0, 0.0, 0.0, 0.0, 0.0, 1.6670498708361793E9, 0.0, 2022-10-29 15:24:30.836
6.0, 0.0, 598.6682253070176, 603.2589525026269, -2250.4885382363573, 0.0, 0.03200000151991844, 0.0, 0.0, 0.0, 0.0, 0.0, 0.0, 1.6670498708361793E9, 0.0, 2022-10-29 15:24:30.836
7.0, 0.0, 726.0454778978601, 720.4636772139929, -2160.413047803566, 0.0, 0.03200000151991844, 0.0, 0.0, 0.0, 0.0, 0.0, 0.0, 1.6670498708497097E9, 0.0, 2022-10-29 15:24:30.849
7.0, 0.0, 794.8540272326209, 820.5751891778782, -2315.4898694162257, 0.0, 0.03200000151991844, 0.0, 0.0, 0.0, 0.0, 0.0, 0.0, 1.6670498708497097E9, 0.0, 2022-10-29 15:24:30.849
8.0, 0.0, 999.170371661894, 1014.5581900295801, -2436.7636052793823, 0.0, 0.03200000151991844, 0.0, 0.0, 0.0, 0.0, 0.0, 0.0, 1.667049870865373E9, 0.0, 2022-10-29 15:24:30.865
8.0, 0.0, 1067.2066316558048, 1071.0718182600103, -2239.841043062508, 0.0, 0.03200000151991844, 0.0, 0.0, 0.0, 0.0, 0.0, 0.0, 1.667049870865373E9, 0.0, 2022-10-29 15:24:30.865
9.0, 0.0, 1210.340082759969, 1204.2047768826596, -2172.4405660610646, 0.0, 0.03200000151991844, 0.0, 0.0, 0.0, 0.0, 0.0, 0.0, 1.6670498708661885E9, 0.0, 2022-10-29 15:24:30.866
9.0, 0.0, 1260.5426298151724, 1279.905961835757, -2276.2807582807727, 0.0, 0.03200000151991844, 0.0, 0.0, 0.0, 0.0, 0.0, 0.0, 1.6670498708661885E9, 0.0, 2022-10-29 15:24:30.866
10.0, 0.0, 1475.1362193226814, 1504.0213366304524, -2467.8421739111654, 0.0, 0.03200000151991844, 0.49600002355873585, 0.0, 0.0, 0.0, 0.0, 0.0, 1.667049870879651E9, 0.0, 2022-10-29 15:24:30.879
10.0, 0.0, 1570.2306554960087, 1563.231432728935, -2244.654294305481, 0.0, 0.03200000151991844, 0.49600002355873585, 0.0, 0.0, 0.0, 0.0, 0.0, 1.667049870879651E9, 0.0, 2022-10-29 15:24:30.879
11.0, 0.0, 1701.8377349367365, 1690.5862459200434, -2179.2920627798885, 0.0, 0.01600000075995922, 0.49600002355873585, 0.0, 0.0, 0.0, 0.0, 0.0, 1.66704987089545E9, 0.0, 2022-10-29 15:24:30.895
11.0, 0.0, 1735.6595201860182, 1755.8792892964557, -2251.5974185732193, 0.0, 0.01600000075995922, 0.49600002355873585, 0.0, 0.0, 0.0, 0.0, 0.0, 1.66704987089545E9, 0.0, 2022-10-29 15:24:30.895
12.0, 0.0, 1963.9374036313966, 1992.3924324442632, -2476.6945171062835, 0.0, 0.01600000075995922, 0.49600002355873585, 0.0, 0.0, 0.0, 0.0, 0.0, 1.6670498708960917E9, 0.0, 2022-10-29 15:24:30.896
12.0, 0.0, 2055.785606643185, 2054.979658202734, -2234.8781958213076, 0.0, 0.01600000075995922, 0.49600002355873585, 0.0, 0.0, 0.0, 0.0, 0.0, 1.6670498708960917E9, 0.0, 2022-10-29 15:24:30.896
13.0, 0.0, 2193.9225514065474, 2186.826091240626, -2199.7006968380883, 0.0, 0.01600000075995922, 0.49600002355873585, 0.0, 0.0, 0.0, 0.0, 0.0, 1.667049870909629E9, 0.0, 2022-10-29 15:24:30.909
13.0, 0.0, 2241.484729093034, 2259.658772927709, -2261.227660959121, 0.0, 0.01600000075995922, 0.49600002355873585, 0.0, 0.0, 0.0, 0.0, 0.0, 1.667049870909629E9, 0.0, 2022-10-29 15:24:30.909
14.0, 0.0, 2464.2986187031493, 2489.556033053901, -2464.6333397491835, 0.0, 0.01600000075995922, 0.49600002355873585, 0.0, 0.0, 0.0, 0.0, 0.0, 1.6670498709254527E9, 0.0, 2022-10-29 15:24:30.925
14.0, 0.0, 2523.9724623961374, 2533.095948338043, -2693.705951935146, 0.0, 0.01600000075995922, 0.49600002355873585, 0.0, 0.0, 0.0, 0.0, 0.0, 1.6670498709254527E9, 0.0, 2022-10-29 15:24:30.925
15.0, 0.0, 2683.165043910034, 2679.026844609063, -2735.7218579873443, 0.0, 0.01600000075995922, 0.49600002355873585, 0.0, 0.0, 0.0, 0.0, 0.0, 1.6670498709261577E9, 0.0, 2022-10-29 15:24:30.926
15.0, 0.0, 2740.080711385701, 2767.03230041638, -2745.5596648207866, 0.0, 0.01600000075995922, 0.49600002355873585, 0.0, 0.0, 0.0, 0.0, 0.0, 1.6670498709261577E9, 0.0, 2022-10-29 15:24:30.926
16.0, 0.0, 2953.152161611244, 2977.975747567136, -2923.638741110917, 0.0, 0.01600000075995922, 0.49600002355873585, 0.0, 0.0, 0.0, 0.0, 0.0, 1.6670498709396734E9, 0.0, 2022-10-29 15:24:30.939
16.0, 0.0, 3021.6746085993946, 3020.5993873621337, -2696.6885221498087, 0.0, 0.01600000075995922, 0.49600002355873585, 0.0, 0.0, 0.0, 0.0, 0.0, 1.6670498709396734E9, 0.0, 2022-10-29 15:24:30.939
17.0, 0.0, 3180.9345083124936, 3169.9747314923443, -2739.5533854919486, 0.0, 0.01600000075995922, 0.49600002355873585, 0.0, 0.0, 0.0, 0.0, 0.0, 1.6670498709554148E9, 0.0, 2022-10-29 15:24:30.955
17.0, 0.0, 3257.9184789503925, 3300.93293829076, -2812.4833045778796, 0.0, 0.01600000075995922, 0.49600002355873585, 0.0, 0.0, 0.0, 0.0, 0.0, 1.6670498709554148E9, 0.0, 2022-10-29 15:24:30.955
18.0, 0.0, 3430.7112066531554, 3468.7366394526325, -2890.24704435654, 0.0, 0.01600000075995922, 0.49600002355873585, 0.0, 0.0, 0.0, 0.0, 0.0, 1.667049870956226E9, 0.0, 2022-10-29 15:24:30.956
18.0, 0.0, 3498.437054950744, 3500.7464431733824, -2677.8973948224448, 0.0, 0.01600000075995922, 0.49600002355873585, 0.0, 0.0, 0.0, 0.0, 0.0, 1.667049870956226E9, 0.0, 2022-10-29 15:24:30.956
19.0, 0.0, 3666.452060460113, 3658.9292516992427, -2740.4939703308046, 0.0, 0.01600000075995922, 0.49600002355873585, 0.0, 0.0, 0.0, 0.0, 0.0, 1.6670498709696643E9, 0.0, 2022-10-29 15:24:30.969
19.0, 0.0, 3762.285126874689, 3786.633745536208, -2804.4256901233457, 0.0, 0.01600000075995922, 0.49600002355873585, 0.0, 0.0, 0.0, 0.0, 0.0, 1.6670498709696643E9, 0.0, 2022-10-29 15:24:30.969
20.0, 0.0, 3928.3722139569, 3948.715399765875, -2867.1325926803984, 0.0, 0.01600000075995922, 0.7520000357180834, 0.0, 0.0, 0.0, 0.0, 0.0, 1.6670498709850962E9, 0.0, 2022-10-29 15:24:30.985
20.0, 0.0, 3983.1692281076685, 3991.5484739583917, -2683.647491004318, 0.0, 0.01600000075995922, 0.7520000357180834, 0.0, 0.0, 0.0, 0.0, 0.0, 1.6670498709850962E9, 0.0, 2022-10-29 15:24:30.985
21.0, 0.0, 4151.296430615708, 4145.70715013193, -2761.0802496368997, 0.0, 0.01600000075995922, 0.7520000357180834, 0.0, 0.0, 0.0, 0.0, 0.0, 1.667049871000483E9, 0.0, 2022-10-29 15:24:31.000
21.0, 0.0, 4206.480524411891, 4239.932059565559, -2741.07926467387, 0.0, 0.01600000075995922, 0.7520000357180834, 0.0, 0.0, 0.0, 0.0, 0.0, 1.667049871000483E9, 0.0, 2022-10-29 15:24:31.000
22.0, 0.0, 4418.358946551569, 4450.826888016891, -2924.809329797048, 0.0, 0.01600000075995922, 0.7520000357180834, 0.0, 0.0, 0.0, 0.0, 0.0, 1.6670498710012524E9, 0.0, 2022-10-29 15:24:31.001
22.0, 0.0, 4504.784294627607, 4497.235306567047, -2692.473654899746, 0.0, 0.01600000075995922, 0.7520000357180834, 0.0, 0.0, 0.0, 0.0, 0.0, 1.6670498710012524E9, 0.0, 2022-10-29 15:24:31.001
23.0, 0.0, 4655.5097426418215, 4640.383717271034, -2753.282558229286, 0.0, 0.01600000075995922, 0.7520000357180834, 0.0, 0.0, 0.0, 0.0, 0.0, 1.6670498710154548E9, 0.0, 2022-10-29 15:24:31.015
23.0, 0.0, 4719.778053430375, 4743.01966170501, -2744.953801027965, 0.0, 0.01600000075995922, 0.7520000357180834, 0.0, 0.0, 0.0, 0.0, 0.0, 1.6670498710154548E9, 0.0, 2022-10-29 15:24:31.015
24.0, 0.0, 4905.409857681021, 4935.013035780285, -2904.909322132822, 0.0, 0.01600000075995922, 0.7520000357180834, 0.0, 0.0, 0.0, 0.0, 0.0, 1.667049871016124E9, 0.0, 2022-10-29 15:24:31.016
24.0, 0.0, 4975.835913746618, 4982.401308118831, -2693.090738392435, 0.0, 0.01600000075995922, 0.7520000357180834, 0.0, 0.0, 0.0, 0.0, 0.0, 1.667049871016124E9, 0.0, 2022-10-29 15:24:31.016
25.0, 0.0, 5130.592973913066, 5137.27056528395, -2767.6774331587367, 0.0, 0.01600000075995922, 0.7520000357180834, 0.0, 0.0, 0.0, 0.0, 0.0, 1.6670498710296829E9, 0.0, 2022-10-29 15:24:31.029
25.0, 0.0, 5223.075089967344, 5252.468833669089, -2768.311346201226, 0.0, 0.01600000075995922, 0.7520000357180834, 0.0, 0.0, 0.0, 0.0, 0.0, 1.6670498710296829E9, 0.0, 2022-10-29 15:24:31.029
26.0, 0.0, 5404.907155863009, 5428.982761827763, -2873.036024760455, 0.0, 0.01600000075995922, 0.7520000357180834, 0.0, 0.0, 0.0, 0.0, 0.0, 1.6670498710453916E9, 0.0, 2022-10-29 15:24:31.045
26.0, 0.0, 5446.850133866072, 5448.80423159292, -2643.1649439339526, 0.0, 0.01600000075995922, 0.7520000357180834, 0.0, 0.0, 0.0, 0.0, 0.0, 1.6670498710453916E9, 0.0, 2022-10-29 15:24:31.045
27.0, 0.0, 5625.942723044194, 5626.924446782563, -2820.064081788063, 0.0, 0.01600000075995922, 0.7520000357180834, 0.0, 0.0, 0.0, 0.0, 0.0, 1.6670498710461392E9, 0.0, 2022-10-29 15:24:31.046
27.0, 0.0, 5726.349687104579, 5747.242638207041, -2770.674962973222, 0.0, 0.01600000075995922, 0.7520000357180834, 0.0, 0.0, 0.0, 0.0, 0.0, 1.6670498710461392E9, 0.0, 2022-10-29 15:24:31.046
28.0, 0.0, 5892.231079689227, 5914.937882270198, -2863.734893570654, 0.0, 0.01600000075995922, 0.7520000357180834, 0.0, 0.0, 0.0, 0.0, 0.0, 1.6670498710596492E9, 0.0, 2022-10-29 15:24:31.059
28.0, 0.0, 5933.36623930186, 5936.517105014529, -2634.36869923817, 0.0, 0.01600000075995922, 0.7520000357180834, 0.0, 0.0, 0.0, 0.0, 0.0, 1.6670498710596492E9, 0.0, 2022-10-29 15:24:31.059
29.0, 0.0, 6131.1097095590085, 6122.079721115995, -2823.033562352881, 0.0, 0.01600000075995922, 0.7520000357180834, 0.0, 0.0, 0.0, 0.0, 0.0, 1.6670498710754504E9, 0.0, 2022-10-29 15:24:31.075
29.0, 0.0, 6212.323507046793, 6234.237450837158, -2765.75699453149, 0.0, 0.01600000075995922, 0.7520000357180834, 0.0, 0.0, 0.0, 0.0, 0.0, 1.6670498710754504E9, 0.0, 2022-10-29 15:24:31.075
30.0, 0.0, 6394.694118536077, 6414.764291648287, -2861.6218500956893, 0.0, 0.01600000075995922, 0.8800000417977571, 0.0, 0.0, 0.0, 0.0, 0.0, 1.6670498710760505E9, 0.0, 2022-10-29 15:24:31.076
30.0, 0.0, 6440.5714712925255, 6428.747777582612, -2631.619872770738, 0.0, 0.01600000075995922, 0.8800000417977571, 0.0, 0.0, 0.0, 0.0, 0.0, 1.6670498710760505E9, 0.0, 2022-10-29 15:24:31.076
31.0, 0.0, 6604.883975845762, 6600.166092051659, -2837.5967327803373, 0.0, 0.01600000075995922, 0.8800000417977571, 0.0, 0.0, 0.0, 0.0, 0.0, 1.6670498710896623E9, 0.0, 2022-10-29 15:24:31.089
31.0, 0.0, 6701.494941451121, 6732.21260973718, -2747.207090751268, 0.0, 0.01600000075995922, 0.8800000417977571, 0.0, 0.0, 0.0, 0.0, 0.0, 1.6670498710896623E9, 0.0, 2022-10-29 15:24:31.089
32.0, 0.0, 6883.895472140051, 6911.1873920666985, -2866.0199724435806, 0.0, 0.01600000075995922, 0.8800000417977571, 0.0, 0.0, 0.0, 0.0, 0.0, 1.6670498711054003E9, 0.0, 2022-10-29 15:24:31.105
32.0, 0.0, 6925.460720247589, 6925.174617900979, -2634.7838281332515, 0.0, 0.01600000075995922, 0.8800000417977571, 0.0, 0.0, 0.0, 0.0, 0.0, 1.6670498711054003E9, 0.0, 2022-10-29 15:24:31.105
33.0, 0.0, 7096.149754225276, 7092.819373314735, -2836.5121617931873, 0.0, 0.01600000075995922, 0.8800000417977571, 0.0, 0.0, 0.0, 0.0, 0.0, 1.6670498711062553E9, 0.0, 2022-10-29 15:24:31.106
33.0, 0.0, 7187.210708296392, 7217.988214981742, -2759.133631709963, 0.0, 0.01600000075995922, 0.8800000417977571, 0.0, 0.0, 0.0, 0.0, 0.0, 1.6670498711062553E9, 0.0, 2022-10-29 15:24:31.106
34.0, 0.0, 7366.166791126132, 7390.661265885923, -2860.6681756069884, 0.0, 0.01600000075995922, 0.8800000417977571, 0.0, 0.0, 0.0, 0.0, 0.0, 1.66704987111962E9, 0.0, 2022-10-29 15:24:31.119
34.0, 0.0, 7408.524898024276, 7409.095232767519, -2624.9778104494326, 0.0, 0.01600000075995922, 0.8800000417977571, 0.0, 0.0, 0.0, 0.0, 0.0, 1.66704987111962E9, 0.0, 2022-10-29 15:24:31.119
35.0, 0.0, 7601.627152436413, 7584.724674586672, -2849.975801633671, 0.0, 0.01600000075995922, 0.8800000417977571, 0.0, 0.0, 0.0, 0.0, 0.0, 1.6670498711353817E9, 0.0, 2022-10-29 15:24:31.135
35.0, 0.0, 7704.326675169636, 7713.910168806091, -2754.140865269117, 0.0, 0.01600000075995922, 0.8800000417977571, 0.0, 0.0, 0.0, 0.0, 0.0, 1.6670498711353817E9, 0.0, 2022-10-29 15:24:31.135
36.0, 0.0, 7858.93974918779, 7883.3669057483785, -2847.9450359577313, 0.0, 0.01600000075995922, 0.8800000417977571, 0.0, 0.0, 0.0, 0.0, 0.0, 1.6670498711362152E9, 0.0, 2022-10-29 15:24:31.136
36.0, 0.0, 7877.69908736553, 7881.65590151865, -3087.556686218828, 0.0, 0.01600000075995922, 0.8800000417977571, 0.0, 0.0, 0.0, 0.0, 0.0, 1.6670498711362152E9, 0.0, 2022-10-29 15:24:31.136
37.0, 0.0, 8067.2185176201165, 8067.83186121285, -2880.9384333668277, 0.0, 0.01600000075995922, 0.8800000417977571, 0.0, 0.0, 0.0, 0.0, 0.0, 1.6670498711497426E9, 0.0, 2022-10-29 15:24:31.149
37.0, 0.0, 8204.96464283811, 8223.660402716603, -2778.9102226756513, 0.0, 0.01600000075995922, 0.8800000417977571, 0.0, 0.0, 0.0, 0.0, 0.0, 1.6670498711497426E9, 0.0, 2022-10-29 15:24:31.149
38.0, 0.0, 8361.339209735394, 8378.049082737416, -2824.312608137727, 0.0, 0.01600000075995922, 0.8800000417977571, 0.0, 0.0, 0.0, 0.0, 0.0, 1.6670498711654177E9, 0.0, 2022-10-29 15:24:31.165
38.0, 0.0, 8380.401479809545, 8373.376077742781, -2593.2821583249606, 0.0, 0.01600000075995922, 0.8800000417977571, 0.0, 0.0, 0.0, 0.0, 0.0, 1.6670498711654177E9, 0.0, 2022-10-29 15:24:31.165
39.0, 0.0, 8560.64595817402, 8554.256339099724, -2400.32202011114, 0.0, 0.01600000075995922, 0.8800000417977571, 0.0, 0.0, 0.0, 0.0, 0.0, 1.667049871166108E9, 0.0, 2022-10-29 15:24:31.166
39.0, 0.0, 8689.580879096407, 8705.51846275758, -2276.6697078761645, 0.0, 0.01600000075995922, 0.8800000417977571, 0.0, 0.0, 0.0, 0.0, 0.0, 1.667049871166108E9, 0.0, 2022-10-29 15:24:31.166
40.0, 0.0, 8843.090682627633, 8867.323364390526, -2335.1505234832875, 0.0, 0.01600000075995922, 0.944000044837594, 0.0, 0.0, 0.0, 0.0, 0.0, 1.667049871179713E9, 0.0, 2022-10-29 15:24:31.179
40.0, 0.0, 8863.162725689821, 8867.861909984145, -2114.1430055517703, 0.0, 0.01600000075995922, 0.944000044837594, 0.0, 0.0, 0.0, 0.0, 0.0, 1.667049871179713E9, 0.0, 2022-10-29 15:24:31.179
41.0, 0.0, 9056.799785795622, 9043.188419906888, -1905.4491082243621, 0.0, 0.01600000075995922, 0.944000044837594, 0.0, 0.0, 0.0, 0.0, 0.0, 1.667049871195418E9, 0.0, 2022-10-29 15:24:31.195
41.0, 0.0, 9195.87731539784, 9222.17816183623, -1812.7594277225435, 0.0, 0.01600000075995922, 0.944000044837594, 0.0, 0.0, 0.0, 0.0, 0.0, 1.667049871195418E9, 0.0, 2022-10-29 15:24:31.195
42.0, 0.0, 9341.312674924731, 9358.854675666895, -1809.1186351156794, 0.0, 0.01600000075995922, 0.944000044837594, 0.0, 0.0, 0.0, 0.0, 0.0, 1.6670498711961696E9, 0.0, 2022-10-29 15:24:31.196
42.0, 0.0, 9325.472328662407, 9325.9117669072, -1570.541067192331, 0.0, 0.01600000075995922, 0.944000044837594, 0.0, 0.0, 0.0, 0.0, 0.0, 1.6670498711961696E9, 0.0, 2022-10-29 15:24:31.196
43.0, 0.0, 9536.604640760925, 9521.669350287877, -1447.3861616514623, 0.0, 0.01600000075995922, 0.944000044837594, 0.0, 0.0, 0.0, 0.0, 0.0, 1.6670498712097104E9, 0.0, 2022-10-29 15:24:31.209
43.0, 0.0, 9684.736468155868, 9710.839099896606, -1348.8510175189003, 0.0, 0.01600000075995922, 0.944000044837594, 0.0, 0.0, 0.0, 0.0, 0.0, 1.6670498712097104E9, 0.0, 2022-10-29 15:24:31.209
44.0, 0.0, 9835.497445219662, 9855.567618331872, -1329.7532183951698, 0.0, 0.01600000075995922, 0.944000044837594, 0.0, 0.0, 0.0, 0.0, 0.0, 1.667049871225428E9, 0.0, 2022-10-29 15:24:31.225
44.0, 0.0, 9799.106348700821, 9817.11209703749, -1554.5137259322219, 0.0, 0.01600000075995922, 0.944000044837594, 0.0, 0.0, 0.0, 0.0, 0.0, 1.667049871225428E9, 0.0, 2022-10-29 15:24:31.225
45.0, 0.0, 10020.055898183025, 10020.760869324673, -1467.0898245680146, 0.0, 0.01600000075995922, 0.944000044837594, 0.0, 0.0, 0.0, 0.0, 0.0, 1.6670498712262108E9, 0.0, 2022-10-29 15:24:31.226
45.0, 0.0, 10192.71772938734, 10210.932912121527, -1341.485284556169, 0.0, 0.01600000075995922, 0.944000044837594, 0.0, 0.0, 0.0, 0.0, 0.0, 1.6670498712262108E9, 0.0, 2022-10-29 15:24:31.226
46.0, 0.0, 10339.465793798678, 10352.561053493526, -1319.3581664683297, 0.0, 0.01600000075995922, 0.944000044837594, 0.0, 0.0, 0.0, 0.0, 0.0, 1.6670498712397914E9, 0.0, 2022-10-29 15:24:31.239
46.0, 0.0, 10304.761392159853, 10297.975343690254, -1523.250032252632, 0.0, 0.01600000075995922, 0.944000044837594, 0.0, 0.0, 0.0, 0.0, 0.0, 1.6670498712397914E9, 0.0, 2022-10-29 15:24:31.239
47.0, 0.0, 10529.271326399874, 10506.119475724176, -1485.7350957971066, 0.0, 0.01600000075995922, 0.944000044837594, 0.0, 0.0, 0.0, 0.0, 0.0, 1.6670498712553751E9, 0.0, 2022-10-29 15:24:31.255
47.0, 0.0, 10704.453850174323, 10723.301076001022, -1376.8815676867962, 0.0, 0.01600000075995922, 0.944000044837594, 0.0, 0.0, 0.0, 0.0, 0.0, 1.6670498712553751E9, 0.0, 2022-10-29 15:24:31.255
48.0, 0.0, 10818.275835375767, 10830.15188768506, -1288.576919883024, 0.0, 0.01600000075995922, 0.944000044837594, 0.0, 0.0, 0.0, 0.0, 0.0, 1.6670498712562532E9, 0.0, 2022-10-29 15:24:31.256
48.0, 0.0, 10783.380698839203, 10779.575350634288, -1521.853179619182, 0.0, 0.01600000075995922, 0.944000044837594, 0.0, 0.0, 0.0, 0.0, 0.0, 1.6670498712562532E9, 0.0, 2022-10-29 15:24:31.256
49.0, 0.0, 11006.596627694555, 10998.613811239135, -1498.4975043958984, 0.0, 0.01600000075995922, 0.944000044837594, 0.0, 0.0, 0.0, 0.0, 0.0, 1.6670498712696855E9, 0.0, 2022-10-29 15:24:31.269
49.0, 0.0, 11210.46044422919, 11219.20620027557, -1369.9421833190136, 0.0, 0.01600000075995922, 0.944000044837594, 0.0, 0.0, 0.0, 0.0, 0.0, 1.6670498712696855E9, 0.0, 2022-10-29 15:24:31.269
50.0, 0.0, 11315.269270537421, 11328.618843429256, -1273.596750610508, 0.0, 0.01600000075995922, 0.9760000463575125, 0.0, 0.0, 0.0, 0.0, 0.0, 1.667049871285493E9, 0.0, 2022-10-29 15:24:31.285
50.0, 0.0, 11264.887208284345, 11272.832625740208, -1514.483706756495, 0.0, 0.01600000075995922, 0.9760000463575125, 0.0, 0.0, 0.0, 0.0, 0.0, 1.667049871285493E9, 0.0, 2022-10-29 15:24:31.285
51.0, 0.0, 11508.796003594529, 11495.390332203358, -1516.0600745878182, 0.0, 0.01600000075995922, 0.9760000463575125, 0.0, 0.0, 0.0, 0.0, 0.0, 1.667049871286146E9, 0.0, 2022-10-29 15:24:31.286
51.0, 0.0, 11718.991470754147, 11730.688007865567, -1395.2687858189456, 0.0, 0.01600000075995922, 0.9760000463575125, 0.0, 0.0, 0.0, 0.0, 0.0, 1.667049871286146E9, 0.0, 2022-10-29 15:24:31.286
52.0, 0.0, 11802.516526414547, 11822.89711122308, -1239.2195902178064, 0.0, 0.01600000075995922, 0.9760000463575125, 0.0, 0.0, 0.0, 0.0, 0.0, 1.6670498712996967E9, 0.0, 2022-10-29 15:24:31.299
52.0, 0.0, 11757.441382198595, 11765.102567257825, -1041.889378905762, 0.0, 0.01600000075995922, 0.9760000463575125, 0.0, 0.0, 0.0, 0.0, 0.0, 1.6670498712996967E9, 0.0, 2022-10-29 15:24:31.299
53.0, 0.0, 11982.396364533342, 11969.68631453393, -1029.4280322534032, 0.0, 0.01600000075995922, 0.9760000463575125, 0.0, 0.0, 0.0, 0.0, 0.0, 1.667049871315349E9, 0.0, 2022-10-29 15:24:31.315
53.0, 0.0, 12186.192862868775, 12204.725937099196, -869.3902333495207, 0.0, 0.01600000075995922, 0.9760000463575125, 0.0, 0.0, 0.0, 0.0, 0.0, 1.667049871315349E9, 0.0, 2022-10-29 15:24:31.315
54.0, 0.0, 12279.434178614058, 12303.621981577482, -763.2911415565759, 0.0, 0.01600000075995922, 0.9760000463575125, 0.0, 0.0, 0.0, 0.0, 0.0, 1.6670498713160975E9, 0.0, 2022-10-29 15:24:31.316
54.0, 0.0, 12229.508384155575, 12226.724028638564, -523.9581138421781, 0.0, 0.01600000075995922, 0.9760000463575125, 0.0, 0.0, 0.0, 0.0, 0.0, 1.6670498713160975E9, 0.0, 2022-10-29 15:24:31.316
55.0, 0.0, 12465.215578862932, 12468.93116946891, -585.5299567626789, 0.0, 0.01600000075995922, 0.9760000463575125, 0.0, 0.0, 0.0, 0.0, 0.0, 1.6670498713296797E9, 0.0, 2022-10-29 15:24:31.329
55.0, 0.0, 12676.091707814485, 12710.018210262526, -385.8940971279517, 0.0, 0.01600000075995922, 0.9760000463575125, 0.0, 0.0, 0.0, 0.0, 0.0, 1.6670498713296797E9, 0.0, 2022-10-29 15:24:31.329
56.0, 0.0, 12775.87410858227, 12802.788298613392, -263.9228699230589, 0.0, 0.01600000075995922, 0.9760000463575125, 0.0, 0.0, 0.0, 0.0, 0.0, 1.6670498713453312E9, 0.0, 2022-10-29 15:24:31.345
56.0, 0.0, 12728.682180991396, 12736.291007451247, -32.383793716318905, 0.0, 0.01600000075995922, 0.9760000463575125, 0.0, 0.0, 0.0, 0.0, 0.0, 1.6670498713453312E9, 0.0, 2022-10-29 15:24:31.345
57.0, 0.0, 12953.304312230088, 12970.27410827903, -97.48610219499096, 0.0, 0.01600000075995922, 0.9760000463575125, 0.0, 0.0, 0.0, 0.0, 0.0, 1.6670498713460732E9, 0.0, 2022-10-29 15:24:31.346
57.0, 0.0, 13155.821764780674, 13196.438948249444, 129.18175431946293, 0.0, 0.01600000075995922, 0.9760000463575125, 0.0, 0.0, 0.0, 0.0, 0.0, 1.6670498713460732E9, 0.0, 2022-10-29 15:24:31.346
58.0, 0.0, 13274.83099122066, 13300.424996567424, 207.53452834114432, 0.0, 0.01600000075995922, 0.9760000463575125, 0.0, 0.0, 0.0, 0.0, 0.0, 1.6670498713596933E9, 0.0, 2022-10-29 15:24:31.359
58.0, 0.0, 13216.89433105709, 13224.510637316853, 8.534451698884368, 0.0, 0.01600000075995922, 0.9760000463575125, 0.0, 0.0, 0.0, 0.0, 0.0, 1.6670498713596933E9, 0.0, 2022-10-29 15:24:31.359
59.0, 0.0, 12994.289875844494, 13463.572522284463, -113.15254310937598, 0.0, 0.01600000075995922, 0.9760000463575125, 0.0, 0.0, 0.0, 0.0, 0.0, 1.6670498713753989E9, 0.0, 2022-10-29 15:24:31.375
59.0, 0.0, 13181.713092173915, 13690.242248748895, -357.680291862227, 0.0, 0.01600000075995922, 0.9760000463575125, 0.0, 0.0, 0.0, 0.0, 0.0, 1.6670498713753989E9, 0.0, 2022-10-29 15:24:31.375
60.0, 0.0, 13254.003488367423, 13782.92631940078, -273.7700265063904, 0.0, 0.01600000075995922, 0.9760000463575125, 0.0, 0.0, 0.0, 0.0, 0.0, 1.6670498713761823E9, 0.0, 2022-10-29 15:24:31.376
60.0, 0.0, 13190.980564264115, 13699.18434954295, -492.879545210395, 0.0, 0.01600000075995922, 0.9760000463575125, 0.0, 0.0, 0.0, 0.0, 0.0, 1.6670498713761823E9, 0.0, 2022-10-29 15:24:31.376
61.0, 0.0, 12973.342696192674, 13464.522456873208, -639.0628847284243, 0.0, 0.01600000075995922, 0.9760000463575125, 0.0, 0.0, 0.0, 0.0, 0.0, 1.6670498713896587E9, 0.0, 2022-10-29 15:24:31.389
61.0, 0.0, 13189.473384581972, 13700.627950925846, -842.8818224635907, 0.0, 0.01600000075995922, 0.9760000463575125, 0.0, 0.0, 0.0, 0.0, 0.0, 1.6670498713896587E9, 0.0, 2022-10-29 15:24:31.389
62.0, 0.0, 13255.31619325187, 13779.852121637203, -749.6928653176874, 0.0, 0.01600000075995922, 0.9760000463575125, 0.0, 0.0, 0.0, 0.0, 0.0, 1.6670498714053648E9, 0.0, 2022-10-29 15:24:31.405
62.0, 0.0, 13202.398478828836, 13699.326465741266, -973.8849080614746, 0.0, 0.01600000075995922, 0.9760000463575125, 0.0, 0.0, 0.0, 0.0, 0.0, 1.6670498714053648E9, 0.0, 2022-10-29 15:24:31.405
63.0, 0.0, 12985.287936651148, 13465.973538056016, -1151.0757581121288, 0.0, 0.01600000075995922, 0.9760000463575125, 0.0, 0.0, 0.0, 0.0, 0.0, 1.6670498714060977E9, 0.0, 2022-10-29 15:24:31.406
63.0, 0.0, 13194.963557716925, 13223.22037183214, -1341.992041000165, 0.0, 0.01600000075995922, 0.9760000463575125, 0.0, 0.0, 0.0, 0.0, 0.0, 1.6670498714060977E9, 0.0, 2022-10-29 15:24:31.406
64.0, 0.0, 13260.129444494843, 13289.781241293531, -1203.9504636856727, 0.0, 0.01600000075995922, 0.9760000463575125, 0.0, 0.0, 0.0, 0.0, 0.0, 1.667049871419721E9, 0.0, 2022-10-29 15:24:31.419
64.0, 0.0, 13185.120141033549, 13195.934061755426, -971.0425840951502, 0.0, 0.01600000075995922, 0.9760000463575125, 0.0, 0.0, 0.0, 0.0, 0.0, 1.667049871419721E9, 0.0, 2022-10-29 15:24:31.419
65.0, 0.0, 12980.624281406403, 12978.449529582169, -1177.270017401781, 0.0, 0.01600000075995922, 0.9760000463575125, 0.0, 0.0, 0.0, 0.0, 0.0, 1.6670498714353237E9, 0.0, 2022-10-29 15:24:31.435
65.0, 0.0, 12736.09840260353, 12767.33591698343, -1403.4236376723275, 0.0, 0.01600000075995922, 0.9760000463575125, 0.0, 0.0, 0.0, 0.0, 0.0, 1.6670498714353237E9, 0.0, 2022-10-29 15:24:31.435
66.0, 0.0, 12772.253885425162, 12795.910622594878, -1641.3747723530978, 0.0, 0.01600000075995922, 0.9760000463575125, 0.0, 0.0, 0.0, 0.0, 0.0, 1.6670498714360745E9, 0.0, 2022-10-29 15:24:31.436
66.0, 0.0, 12691.672131029889, 12691.868475777563, -1441.2658153739758, 0.0, 0.01600000075995922, 0.9760000463575125, 0.0, 0.0, 0.0, 0.0, 0.0, 1.6670498714360745E9, 0.0, 2022-10-29 15:24:31.436
67.0, 0.0, 12479.060688498896, 12476.975694273598, -1684.103129346855, 0.0, 0.01600000075995922, 0.9760000463575125, 0.0, 0.0, 0.0, 0.0, 0.0, 1.667049871449674E9, 0.0, 2022-10-29 15:24:31.449
67.0, 0.0, 12255.897118242923, 12291.383158972487, -1914.1537253712304, 0.0, 0.01600000075995922, 0.9760000463575125, 0.0, 0.0, 0.0, 0.0, 0.0, 1.667049871449674E9, 0.0, 2022-10-29 15:24:31.449
68.0, 0.0, 12265.319796181284, 12295.584936572704, -2106.392062893603, 0.0, 0.01600000075995922, 0.9760000463575125, 0.0, 0.0, 0.0, 0.0, 0.0, 1.6670498714653175E9, 0.0, 2022-10-29 15:24:31.465
68.0, 0.0, 12199.768699707929, 12204.060234907083, -1923.131355214864, 0.0, 0.01600000075995922, 0.9760000463575125, 0.0, 0.0, 0.0, 0.0, 0.0, 1.6670498714653175E9, 0.0, 2022-10-29 15:24:31.465
69.0, 0.0, 11992.10888471827, 11985.681866644416, -1684.1779273459688, 0.0, 0.01600000075995922, 0.9760000463575125, 0.0, 0.0, 0.0, 0.0, 0.0, 1.6670498714660683E9, 0.0, 2022-10-29 15:24:31.466
69.0, 0.0, 12220.97393245669, 11754.309215985704, -1822.462598157581, 0.0, 0.01600000075995922, 0.9760000463575125, 0.0, 0.0, 0.0, 0.0, 0.0, 1.6670498714660683E9, 0.0, 2022-10-29 15:24:31.466
70.0, 0.0, 12271.034363313578, 11808.663051991723, -1678.8410901091993, 0.0, 0.01600000075995922, 0.9920000471174717, 0.0, 0.0, 0.0, 0.0, 0.0, 1.6670498714798503E9, 0.0, 2022-10-29 15:24:31.479
70.0, 0.0, 12190.224475021008, 11708.544060227927, -1447.5002286001109, 0.0, 0.01600000075995922, 0.9920000471174717, 0.0, 0.0, 0.0, 0.0, 0.0, 1.6670498714798503E9, 0.0, 2022-10-29 15:24:31.479
71.0, 0.0, 11995.931062472984, 11506.849385667592, -1217.4702020254917, 0.0, 0.01600000075995922, 0.9920000471174717, 0.0, 0.0, 0.0, 0.0, 0.0, 1.667049871495326E9, 0.0, 2022-10-29 15:24:31.495
71.0, 0.0, 12228.90626026271, 11272.769047440961, -1331.512841324322, 0.0, 0.01600000075995922, 0.9920000471174717, 0.0, 0.0, 0.0, 0.0, 0.0, 1.667049871495326E9, 0.0, 2022-10-29 15:24:31.495
72.0, 0.0, 12272.952931990847, 11325.97847406054, -1183.1267007323913, 0.0, 0.01600000075995922, 0.9920000471174717, 0.0, 0.0, 0.0, 0.0, 0.0, 1.667049871496164E9, 0.0, 2022-10-29 15:24:31.496
72.0, 0.0, 12198.945921717677, 11225.291017503478, -948.5433459617198, 0.0, 0.01600000075995922, 0.9920000471174717, 0.0, 0.0, 0.0, 0.0, 0.0, 1.667049871496164E9, 0.0, 2022-10-29 15:24:31.496
73.0, 0.0, 12002.539465694688, 11015.44336103974, -734.82676299382, 0.0, 0.01600000075995922, 0.9920000471174717, 0.0, 0.0, 0.0, 0.0, 0.0, 1.6670498715097136E9, 0.0, 2022-10-29 15:24:31.509
73.0, 0.0, 12230.204005547334, 10782.900121694896, -842.6649082661606, 0.0, 0.01600000075995922, 0.9920000471174717, 0.0, 0.0, 0.0, 0.0, 0.0, 1.6670498715097136E9, 0.0, 2022-10-29 15:24:31.509
74.0, 0.0, 12270.955825414509, 10829.546023892239, -683.5377750014886, 0.0, 0.01600000075995922, 0.9920000471174717, 0.0, 0.0, 0.0, 0.0, 0.0, 1.667049871525431E9, 0.0, 2022-10-29 15:24:31.525
74.0, 0.0, 12199.985613905359, 10721.476004822645, -921.1373590864241, 0.0, 0.01600000075995922, 0.9920000471174717, 0.0, 0.0, 0.0, 0.0, 0.0, 1.667049871525431E9, 0.0, 2022-10-29 15:24:31.525
75.0, 0.0, 11995.250400681049, 10527.294789273292, -769.3236001851037, 0.0, 0.01600000075995922, 0.9920000471174717, 0.0, 0.0, 0.0, 0.0, 0.0, 1.6670498715261867E9, 0.0, 2022-10-29 15:24:31.526
75.0, 0.0, 11761.345837752335, 10323.803092784248, -872.6252468111925, 0.0, 0.01600000075995922, 0.9920000471174717, 0.0, 0.0, 0.0, 0.0, 0.0, 1.6670498715261867E9, 0.0, 2022-10-29 15:24:31.526
76.0, 0.0, 11782.545460651163, 10346.371519066859, -647.9040082236752, 0.0, 0.01600000075995922, 0.9920000471174717, 0.0, 0.0, 0.0, 0.0, 0.0, 1.6670498715397024E9, 0.0, 2022-10-29 15:24:31.539
76.0, 0.0, 11691.772478876635, 10230.81796018593, -422.57690584333614, 0.0, 0.01600000075995922, 0.9920000471174717, 0.0, 0.0, 0.0, 0.0, 0.0, 1.6670498715397024E9, 0.0, 2022-10-29 15:24:31.539
77.0, 0.0, 11513.46339873923, 10039.568826201838, -300.6038086884655, 0.0, 0.01600000075995922, 0.9920000471174717, 0.0, 0.0, 0.0, 0.0, 0.0, 1.6670498715553324E9, 0.0, 2022-10-29 15:24:31.555
77.0, 0.0, 11751.913810064085, 9831.899661462288, -390.7110882708803, 0.0, 0.01600000075995922, 0.9920000471174717, 0.0, 0.0, 0.0, 0.0, 0.0, 1.6670498715553324E9, 0.0, 2022-10-29 15:24:31.555
78.0, 0.0, 11779.807853883598, 9848.252374018542, -630.2815996324643, 0.0, 0.01600000075995922, 0.9920000471174717, 0.0, 0.0, 0.0, 0.0, 0.0, 1.6670498715561712E9, 0.0, 2022-10-29 15:24:31.556
78.0, 0.0, 11681.584991397336, 9730.858784359414, -410.5830466854386, 0.0, 0.01600000075995922, 0.9920000471174717, 0.0, 0.0, 0.0, 0.0, 0.0, 1.6670498715561712E9, 0.0, 2022-10-29 15:24:31.556
79.0, 0.0, 11506.585722720716, 9548.450773870572, -305.3160826326348, 0.0, 0.01600000075995922, 0.9920000471174717, 0.0, 0.0, 0.0, 0.0, 0.0, 1.6670498715697353E9, 0.0, 2022-10-29 15:24:31.569
79.0, 0.0, 11274.92135986546, 9344.323294389062, -361.6632853150368, 0.0, 0.01600000075995922, 0.9920000471174717, 0.0, 0.0, 0.0, 0.0, 0.0, 1.6670498715697353E9, 0.0, 2022-10-29 15:24:31.569
80.0, 0.0, 11293.121582999825, 9359.845749155153, -153.02361653698608, 0.0, 0.01600000075995922, 0.9920000471174717, 0.0, 0.0, 0.0, 0.0, 0.0, 1.667049871585488E9, 0.0, 2022-10-29 15:24:31.585
80.0, 0.0, 11205.837927883957, 9248.978284918703, 91.66120801400393, 0.0, 0.01600000075995922, 0.9920000471174717, 0.0, 0.0, 0.0, 0.0, 0.0, 1.667049871585488E9, 0.0, 2022-10-29 15:24:31.585
81.0, 0.0, 11028.789194031619, 9056.195791952778, 165.31105784140527, 0.0, 0.01600000075995922, 0.9920000471174717, 0.0, 0.0, 0.0, 0.0, 0.0, 1.667049871586085E9, 0.0, 2022-10-29 15:24:31.586
81.0, 0.0, 10786.51473500207, 8851.339031979907, 121.40276241162792, 0.0, 0.01600000075995922, 0.9920000471174717, 0.0, 0.0, 0.0, 0.0, 0.0, 1.667049871586085E9, 0.0, 2022-10-29 15:24:31.586
82.0, 0.0, 10800.911479881499, 8876.880678727292, 336.84156930912286, 0.0, 0.01600000075995922, 0.9920000471174717, 0.0, 0.0, 0.0, 0.0, 0.0, 1.6670498715997305E9, 0.0, 2022-10-29 15:24:31.599
82.0, 0.0, 10710.994935196824, 8762.93527682731, 539.3926809593104, 0.0, 0.01600000075995922, 0.9920000471174717, 0.0, 0.0, 0.0, 0.0, 0.0, 1.6670498715997305E9, 0.0, 2022-10-29 15:24:31.599
83.0, 0.0, 10540.27785196947, 8571.671183243394, 670.6295103044249, 0.0, 0.01600000075995922, 0.9920000471174717, 0.0, 0.0, 0.0, 0.0, 0.0, 1.6670498716153483E9, 0.0, 2022-10-29 15:24:31.615
83.0, 0.0, 10323.539429837372, 8383.565435172059, 603.5039159497246, 0.0, 0.01600000075995922, 0.9920000471174717, 0.0, 0.0, 0.0, 0.0, 0.0, 1.6670498716153483E9, 0.0, 2022-10-29 15:24:31.615
84.0, 0.0, 10317.080622613896, 8383.056808778085, 370.3996916115284, 0.0, 0.01600000075995922, 0.9920000471174717, 0.0, 0.0, 0.0, 0.0, 0.0, 1.6670498716160526E9, 0.0, 2022-10-29 15:24:31.616
84.0, 0.0, 10204.178652801551, 8247.449906334747, 602.896182206925, 0.0, 0.01600000075995922, 0.9920000471174717, 0.0, 0.0, 0.0, 0.0, 0.0, 1.6670498716160526E9, 0.0, 2022-10-29 15:24:31.616
85.0, 0.0, 10043.996867749374, 8080.637278661132, 618.9590525166132, 0.0, 0.01600000075995922, 0.9920000471174717, 0.0, 0.0, 0.0, 0.0, 0.0, 1.6670498716461003E9, 0.0, 2022-10-29 15:24:31.646
85.0, 0.0, 9864.661185074132, 7924.313200413249, 536.2567748464644, 0.0, 0.01600000075995922, 0.9920000471174717, 0.0, 0.0, 0.0, 0.0, 0.0, 1.6670498716461003E9, 0.0, 2022-10-29 15:24:31.646
86.0, 0.0, 9825.126702642534, 7883.357555998489, 442.5012228572741, 0.0, 0.01600000075995922, 0.9920000471174717, 0.0, 0.0, 0.0, 0.0, 0.0, 1.6670498716468093E9, 0.0, 2022-10-29 15:24:31.646
86.0, 0.0, 9694.22833424341, 7741.224528132472, 622.5755357737653, 0.0, 0.01600000075995922, 0.9920000471174717, 0.0, 0.0, 0.0, 0.0, 0.0, 1.6670498716468093E9, 0.0, 2022-10-29 15:24:31.646
87.0, 0.0, 9535.112420678604, 7581.794462971389, 610.1497181709856, 0.0, 0.01600000075995922, 0.9920000471174717, 0.0, 0.0, 0.0, 0.0, 0.0, 1.6670498716475627E9, 0.0, 2022-10-29 15:24:31.647
87.0, 0.0, 9378.09646093892, 7449.170130742714, 489.816567146685, 0.0, 0.01600000075995922, 0.9920000471174717, 0.0, 0.0, 0.0, 0.0, 0.0, 1.6670498716475627E9, 0.0, 2022-10-29 15:24:31.647
88.0, 0.0, 9331.729181288276, 7402.686914193444, 471.5770750627853, 0.0, 0.01600000075995922, 0.9920000471174717, 0.0, 0.0, 0.0, 0.0, 0.0, 1.6670498716597452E9, 0.0, 2022-10-29 15:24:31.659
88.0, 0.0, 9215.379023716785, 7250.201843250077, 629.7056550392881, 0.0, 0.01600000075995922, 0.9920000471174717, 0.0, 0.0, 0.0, 0.0, 0.0, 1.6670498716597452E9, 0.0, 2022-10-29 15:24:31.659
89.0, 0.0, 9058.686565323267, 7093.35230905842, 598.7411533561535, 0.0, 0.01600000075995922, 0.9920000471174717, 0.0, 0.0, 0.0, 0.0, 0.0, 1.6670498716754084E9, 0.0, 2022-10-29 15:24:31.675
89.0, 0.0, 8849.843071997631, 6914.491593677551, 602.0659244167618, 0.0, 0.01600000075995922, 0.9920000471174717, 0.0, 0.0, 0.0, 0.0, 0.0, 1.6670498716754084E9, 0.0, 2022-10-29 15:24:31.675
90.0, 0.0, 8847.404657226522, 6910.310385527089, 393.1214537923224, 0.0, 0.01600000075995922, 0.9920000471174717, 0.0, 0.0, 0.0, 0.0, 0.0, 1.667049871676088E9, 0.0, 2022-10-29 15:24:31.676
90.0, 0.0, 8714.856992946938, 6765.873579288367, 617.7005761815235, 0.0, 0.01600000075995922, 0.9920000471174717, 0.0, 0.0, 0.0, 0.0, 0.0, 1.667049871676088E9, 0.0, 2022-10-29 15:24:31.676
91.0, 0.0, 8558.43380735023, 6604.117296354845, 584.4360360256396, 0.0, 0.01600000075995922, 0.9920000471174717, 0.0, 0.0, 0.0, 0.0, 0.0, 1.6670498716897323E9, 0.0, 2022-10-29 15:24:31.689
91.0, 0.0, 8364.811706844252, 6435.896596347913, 577.6724269557744, 0.0, 0.01600000075995922, 0.9920000471174717, 0.0, 0.0, 0.0, 0.0, 0.0, 1.6670498716897323E9, 0.0, 2022-10-29 15:24:31.689
92.0, 0.0, 8356.475469843019, 6423.857858390547, 396.9716807967052, 0.0, 0.01600000075995922, 0.9920000471174717, 0.0, 0.0, 0.0, 0.0, 0.0, 1.6670498717054064E9, 0.0, 2022-10-29 15:24:31.705
92.0, 0.0, 8238.81260738708, 6289.578620431479, 605.9217612710781, 0.0, 0.01600000075995922, 0.9920000471174717, 0.0, 0.0, 0.0, 0.0, 0.0, 1.6670498717054064E9, 0.0, 2022-10-29 15:24:31.705
93.0, 0.0, 8071.820464515593, 6110.065292508341, 589.9953973097727, 0.0, 0.01600000075995922, 0.9920000471174717, 0.0, 0.0, 0.0, 0.0, 0.0, 1.667049871706178E9, 0.0, 2022-10-29 15:24:31.706
93.0, 0.0, 7879.316594096366, 5954.074065356515, 594.5468555558473, 0.0, 0.01600000075995922, 0.9920000471174717, 0.0, 0.0, 0.0, 0.0, 0.0, 1.667049871706178E9, 0.0, 2022-10-29 15:24:31.706
94.0, 0.0, 7852.004104719963, 5932.367686013691, 403.004139425233, 0.0, 0.01600000075995922, 0.9920000471174717, 0.0, 0.0, 0.0, 0.0, 0.0, 1.6670498717197647E9, 0.0, 2022-10-29 15:24:31.719
94.0, 0.0, 7725.608575867489, 5782.085416144226, 627.2055319189094, 0.0, 0.01600000075995922, 0.9920000471174717, 0.0, 0.0, 0.0, 0.0, 0.0, 1.6670498717197647E9, 0.0, 2022-10-29 15:24:31.719
95.0, 0.0, 7582.132923917379, 5622.071926590055, 569.620422351174, 0.0, 0.01600000075995922, 0.9920000471174717, 0.0, 0.0, 0.0, 0.0, 0.0, 1.6670498717354455E9, 0.0, 2022-10-29 15:24:31.735
95.0, 0.0, 7409.850692558568, 5479.723854476586, 564.9698567562737, 0.0, 0.01600000075995922, 0.9920000471174717, 0.0, 0.0, 0.0, 0.0, 0.0, 1.6670498717354455E9, 0.0, 2022-10-29 15:24:31.735
96.0, 0.0, 7375.525890765246, 5443.368287007324, 434.4398685027845, 0.0, 0.01600000075995922, 0.9920000471174717, 0.0, 0.0, 0.0, 0.0, 0.0, 1.6670498717361083E9, 0.0, 2022-10-29 15:24:31.736
96.0, 0.0, 7231.059165326878, 5274.405216859188, 667.3926268927753, 0.0, 0.01600000075995922, 0.9920000471174717, 0.0, 0.0, 0.0, 0.0, 0.0, 1.6670498717361083E9, 0.0, 2022-10-29 15:24:31.736
97.0, 0.0, 7094.214355998207, 5129.781415622681, 521.0746509763412, 0.0, 0.01600000075995922, 0.9920000471174717, 0.0, 0.0, 0.0, 0.0, 0.0, 1.6670498717497196E9, 0.0, 2022-10-29 15:24:31.749
97.0, 0.0, 6943.556226183195, 5008.735813656822, 527.9111880953424, 0.0, 0.01600000075995922, 0.9920000471174717, 0.0, 0.0, 0.0, 0.0, 0.0, 1.6670498717497196E9, 0.0, 2022-10-29 15:24:31.749
98.0, 0.0, 6881.010139324237, 4953.774243908003, 481.6972443428822, 0.0, 0.01600000075995922, 0.9920000471174717, 0.0, 0.0, 0.0, 0.0, 0.0, 1.6670498717653852E9, 0.0, 2022-10-29 15:24:31.765
98.0, 0.0, 6729.160851373337, 4774.141239186283, 675.6241466952488, 0.0, 0.01600000075995922, 0.9920000471174717, 0.0, 0.0, 0.0, 0.0, 0.0, 1.6670498717653852E9, 0.0, 2022-10-29 15:24:31.765
99.0, 0.0, 6604.059327905532, 4640.6997388172895, 502.20311579992995, 0.0, 0.01600000075995922, 0.9920000471174717, 0.0, 0.0, 0.0, 0.0, 0.0, 1.6670498717660704E9, 0.0, 2022-10-29 15:24:31.766
99.0, 0.0, 6463.412910271902, 4526.486934070475, 526.7069403096102, 0.0, 0.01600000075995922, 0.9920000471174717, 0.0, 0.0, 0.0, 0.0, 0.0, 1.6670498717660704E9, 0.0, 2022-10-29 15:24:31.766
100.0, 0.0, 6391.917242818978, 4460.788111548871, 503.3737044860609, 0.0, 0.01600000075995922, 0.9920000471174717, 0.0, 0.0, 0.0, 0.0, 0.0, 1.6670498717801652E9, 0.0, 2022-10-29 15:24:31.780
100.0, 0.0, 6237.554742097855, 4288.182378843892, 652.3993679704145, 0.0, 0.01600000075995922, 0.9920000471174717, 0.0, 0.0, 0.0, 0.0, 0.0, 1.6670498717801652E9, 0.0, 2022-10-29 15:24:31.780
0.0, 0.0, 721.9783366960473, 720.8133578598499, -1942.223544488661, 0.0, 0.01600000075995922, 0.9920000471174717, 0.0, 0.0, 0.0, 0.0, 0.0, 1.6670498717954187E9, 0.0, 2022-10-29 15:24:31.795
1.0, 0.0, 554.0044700861908, 588.0955281322822, -1869.101020555012, 0.0, 0.01600000075995922, 0.9920000471174717, 0.0, 0.0, 0.0, 0.0, 0.0, 1.6670498717961524E9, 0.0, 2022-10-29 15:24:31.796
1.0, 0.0, 509.3687641150318, 539.734881805256, -1986.6685155620798, 0.0, 0.01600000075995922, 0.9920000471174717, 0.0, 0.0, 0.0, 0.0, 0.0, 1.6670498717961524E9, 0.0, 2022-10-29 15:24:31.796
2.0, 0.0, 367.48630954604596, 377.0473637827672, -1800.6253223163076, 0.0, 0.01600000075995922, 0.9920000471174717, 0.0, 0.0, 0.0, 0.0, 0.0, 1.6670498718103719E9, 0.0, 2022-10-29 15:24:31.810
2.0, 0.0, 244.51652905298397, 237.1096571907401, -1963.3801585379988, 0.0, 0.01600000075995922, 0.9920000471174717, 0.0, 0.0, 0.0, 0.0, 0.0, 1.6670498718103719E9, 0.0, 2022-10-29 15:24:31.810
3.0, 0.0, 77.91520572686568, 106.29917644057423, -1857.9224595874548, 0.0, 0.01600000075995922, 0.9920000471174717, 0.0, 0.0, 0.0, 0.0, 0.0, 1.6670498718110688E9, 0.0, 2022-10-29 15:24:31.811
3.0, 0.0, -3.741769905667752, 46.5767140481621, -1968.069993082434, 0.0, 0.01600000075995922, 0.9920000471174717, 0.0, 0.0, 0.0, 0.0, 0.0, 1.6670498718110688E9, 0.0, 2022-10-29 15:24:31.811
4.0, 0.0, -147.78214674908668, -126.05893785646185, -1807.8582888306119, 0.0, 0.01600000075995922, 0.9920000471174717, 0.0, 0.0, 0.0, 0.0, 0.0, 1.6670498718247504E9, 0.0, 2022-10-29 15:24:31.824
4.0, 0.0, -239.84913390828297, -244.1556287072599, -2006.1421746313572, 0.0, 0.01600000075995922, 0.9920000471174717, 0.0, 0.0, 0.0, 0.0, 0.0, 1.6670498718247504E9, 0.0, 2022-10-29 15:24:31.824
5.0, 0.0, -376.44149998994544, -353.5402226112783, -1877.758888952434, 0.0, 0.01600000075995922, 0.9920000471174717, 0.0, 0.0, 0.0, 0.0, 0.0, 1.6670498718404882E9, 0.0, 2022-10-29 15:24:31.840
5.0, 0.0, -458.40514741884544, -435.92647873517126, -1938.9623517272994, 0.0, 0.01600000075995922, 0.9920000471174717, 0.0, 0.0, 0.0, 0.0, 0.0, 1.6670498718404882E9, 0.0, 2022-10-29 15:24:31.840
6.0, 0.0, -622.8616381203756, -615.8811148530804, -1788.934395054821, 0.0, 0.01600000075995922, 0.9920000471174717, 0.0, 0.0, 0.0, 0.0, 0.0, 1.6670498718411891E9, 0.0, 2022-10-29 15:24:31.841
6.0, 0.0, -709.2439773469232, -710.4500950826332, -1578.7445377451368, 0.0, 0.01600000075995922, 0.9920000471174717, 0.0, 0.0, 0.0, 0.0, 0.0, 1.6670498718411891E9, 0.0, 2022-10-29 15:24:31.841
7.0, 0.0, -878.8110413379036, -840.9202449368313, -1380.1184510984458, 0.0, 0.01600000075995922, 0.9920000471174717, 0.0, 0.0, 0.0, 0.0, 0.0, 1.6670498718547451E9, 0.0, 2022-10-29 15:24:31.854
7.0, 0.0, -970.502168551553, -932.0877861566842, -1433.206330969464, 0.0, 0.01600000075995922, 0.9920000471174717, 0.0, 0.0, 0.0, 0.0, 0.0, 1.6670498718547451E9, 0.0, 2022-10-29 15:24:31.854
8.0, 0.0, -1105.8136188983917, -1103.9866777700372, -1315.0946805188432, 0.0, 0.01600000075995922, 0.9920000471174717, 0.0, 0.0, 0.0, 0.0, 0.0, 1.667049871870434E9, 0.0, 2022-10-29 15:24:31.870
8.0, 0.0, -1204.2533955820836, -1202.6994671504945, -1085.0384746445343, 0.0, 0.01600000075995922, 0.9920000471174717, 0.0, 0.0, 0.0, 0.0, 0.0, 1.667049871870434E9, 0.0, 2022-10-29 15:24:31.870
9.0, 0.0, -1363.8648458910175, -1334.3551652906463, -1326.9969121278264, 0.0, 0.01600000075995922, 0.9920000471174717, 0.0, 0.0, 0.0, 0.0, 0.0, 1.6670498718711708E9, 0.0, 2022-10-29 15:24:31.871
9.0, 0.0, -1459.8867772533558, -1439.708147042431, -1410.4228604394011, 0.0, 0.01600000075995922, 0.9920000471174717, 0.0, 0.0, 0.0, 0.0, 0.0, 1.6670498718711708E9, 0.0, 2022-10-29 15:24:31.871
10.0, 0.0, -1621.0297165941447, -1603.4877158519812, -1310.3674469748512, 0.0, 0.01600000075995922, 1.0240000486373901, 0.0, 0.0, 0.0, 0.0, 0.0, 1.66704987188476E9, 0.0, 2022-10-29 15:24:31.884
10.0, 0.0, -1706.7912324280478, -1697.6640065861866, -1097.9860082911327, 0.0, 0.01600000075995922, 1.0240000486373901, 0.0, 0.0, 0.0, 0.0, 0.0, 1.66704987188476E9, 0.0, 2022-10-29 15:24:31.884
11.0, 0.0, -1848.3576654507779, -1813.0025212196633, -1331.8176431707107, 0.0, 0.01600000075995922, 1.0240000486373901, 0.0, 0.0, 0.0, 0.0, 0.0, 1.6670498719005387E9, 0.0, 2022-10-29 15:24:31.900
11.0, 0.0, -1975.076695649419, -1940.0618823142722, -1378.282160220202, 0.0, 0.01600000075995922, 1.0240000486373901, 0.0, 0.0, 0.0, 0.0, 0.0, 1.6670498719005387E9, 0.0, 2022-10-29 15:24:31.900
12.0, 0.0, -2146.0742713734508, -2134.927499555517, -1272.8412908194587, -0.01600000075995922, 0.01600000075995922, 1.0240000486373901, 0.0, 0.0, 0.0, 0.0, 0.0, 1.6670498719011254E9, 0.0, 2022-10-29 15:24:31.901
12.0, 0.0, -2184.1258834726177, -2184.871993513778, -1164.257035505958, -0.01600000075995922, 0.01600000075995922, 1.0240000486373901, 0.0, 0.0, 0.0, 0.0, 0.0, 1.6670498719011254E9, 0.0, 2022-10-29 15:24:31.901
13.0, 0.0, -2331.3881841278635, -2297.5364796789363, -1329.0463773035444, -0.01600000075995922, 0.01600000075995922, 1.0240000486373901, 0.0, 0.0, 0.0, 0.0, 0.0, 1.6670498719146895E9, 0.0, 2022-10-29 15:24:31.914
13.0, 0.0, -2470.0225355853327, -2437.984682614915, -1361.8153807152994, -0.01600000075995922, 0.01600000075995922, 1.0240000486373901, 0.0, 0.0, 0.0, 0.0, 0.0, 1.6670498719146895E9, 0.0, 2022-10-29 15:24:31.914
14.0, 0.0, -2644.4458596687764, -2627.9846900138073, -1270.43653514795, -0.01600000075995922, 0.01600000075995922, 1.0240000486373901, 0.0, 0.0, 0.0, 0.0, 0.0, 1.6670498719303272E9, 0.0, 2022-10-29 15:24:31.930
14.0, 0.0, -2667.1676218495704, -2670.079133965075, -1186.0045537482947, -0.01600000075995922, 0.01600000075995922, 1.0240000486373901, 0.0, 0.0, 0.0, 0.0, 0.0, 1.6670498719303272E9, 0.0, 2022-10-29 15:24:31.930
15.0, 0.0, -2768.070122654084, -2747.6483989460394, -1410.6509943366982, -0.01600000075995922, 0.01600000075995922, 1.0240000486373901, 0.0, 0.0, 0.0, 0.0, 0.0, 1.667049871931065E9, 0.0, 2022-10-29 15:24:31.931
15.0, 0.0, -2972.268660234753, -2926.6961093246937, -1265.324091908522, -0.01600000075995922, 0.01600000075995922, 1.0240000486373901, 0.0, 0.0, 0.0, 0.0, 0.0, 1.667049871931065E9, 0.0, 2022-10-29 15:24:31.931
16.0, 0.0, -3155.637825012207, -3137.7480135741644, -1264.2713100709952, -0.01600000075995922, 0.01600000075995922, 1.0240000486373901, 0.0, 0.0, 0.0, 0.0, 0.0, 1.6670498719446518E9, 0.0, 2022-10-29 15:24:31.944
16.0, 0.0, -3182.608113542665, -3175.825804973021, -1212.4923951844685, -0.01600000075995922, 0.01600000075995922, 1.0240000486373901, 0.0, 0.0, 0.0, 0.0, 0.0, 1.6670498719446518E9, 0.0, 2022-10-29 15:24:31.944
17.0, 0.0, -3298.257039872464, -3266.5744773978367, -1333.8128797970712, -0.01600000075995922, 0.01600000075995922, 1.0240000486373901, 0.0, 0.0, 0.0, 0.0, 0.0, 1.667049871960405E9, 0.0, 2022-10-29 15:24:31.960
17.0, 0.0, -3459.226073865313, -3426.2569858059287, -1311.3416909133084, -0.01600000075995922, 0.01600000075995922, 1.0240000486373901, 0.0, 0.0, 0.0, 0.0, 0.0, 1.667049871960405E9, 0.0, 2022-10-29 15:24:31.960
18.0, 0.0, -3633.5932994494215, -3625.3225106974132, -1274.8458771957085, -0.01600000075995922, 0.01600000075995922, 1.0240000486373901, 0.0, 0.0, 0.0, 0.0, 0.0, 1.6670498719612365E9, 0.0, 2022-10-29 15:24:31.961
18.0, 0.0, -3647.866627630312, -3651.896369832568, -1222.7041920134798, -0.01600000075995922, 0.01600000075995922, 1.0240000486373901, 0.0, 0.0, 0.0, 0.0, 0.0, 1.6670498719612365E9, 0.0, 2022-10-29 15:24:31.961
19.0, 0.0, -3786.46731998818, -3763.0387167157605, -1299.2318948567845, -0.01600000075995922, 0.01600000075995922, 1.0240000486373901, 0.0, 0.0, 0.0, 0.0, 0.0, 1.6670498719747055E9, 0.0, 2022-10-29 15:24:31.974
19.0, 0.0, -3951.9167541279458, -3917.698539483361, -1333.3659617523663, -0.01600000075995922, 0.01600000075995922, 1.0240000486373901, 0.0, 0.0, 0.0, 0.0, 0.0, 1.6670498719747055E9, 0.0, 2022-10-29 15:24:31.974
20.0, 0.0, -4141.340816933662, -4113.540270613041, -1289.0649768272415, -0.01600000075995922, 0.01600000075995922, 1.008000047877431, 0.0, 0.0, 0.0, 0.0, 0.0, 1.6670498719903917E9, 0.0, 2022-10-29 15:24:31.990
20.0, 0.0, -4146.690743820276, -4143.868989303708, -1231.3433609111235, -0.01600000075995922, 0.01600000075995922, 1.008000047877431, 0.0, 0.0, 0.0, 0.0, 0.0, 1.6670498719903917E9, 0.0, 2022-10-29 15:24:31.990
21.0, 0.0, -4278.309042960871, -4250.759069937281, -1287.0061619016342, -0.01600000075995922, 0.01600000075995922, 1.008000047877431, 0.0, 0.0, 0.0, 0.0, 0.0, 1.6670498719911742E9, 0.0, 2022-10-29 15:24:31.991
21.0, 0.0, -4460.210297005717, -4414.465710697696, -1332.344969064463, -0.01600000075995922, 0.01600000075995922, 1.008000047877431, 0.0, 0.0, 0.0, 0.0, 0.0, 1.6670498719911742E9, 0.0, 2022-10-29 15:24:31.991
22.0, 0.0, -4623.197007024661, -4607.783009357285, -1287.224946049042, 0.0, 0.01600000075995922, 1.008000047877431, 0.0, 0.0, 0.0, 0.0, 0.0, 1.6670498720048E9, 0.0, 2022-10-29 15:24:32.004
22.0, 0.0, -4620.493059356697, -4623.133428725414, -1256.2024759165943, 0.0, 0.01600000075995922, 1.008000047877431, 0.0, 0.0, 0.0, 0.0, 0.0, 1.6670498720048E9, 0.0, 2022-10-29 15:24:32.004
23.0, 0.0, -4752.264694395475, -4721.290842962451, -1292.9152038316242, 0.0, 0.01600000075995922, 1.008000047877431, 0.0, 0.0, 0.0, 0.0, 0.0, 1.6670498720203393E9, 0.0, 2022-10-29 15:24:32.020
23.0, 0.0, -4949.877268154174, -4904.422524092719, -1302.6651230161078, 0.0, 0.01600000075995922, 1.008000047877431, 0.0, 0.0, 0.0, 0.0, 0.0, 1.6670498720203393E9, 0.0, 2022-10-29 15:24:32.020
24.0, 0.0, -5122.0491724642925, -5105.5749131594785, -1272.1082704281434, 0.0, 0.01600000075995922, 1.008000047877431, 0.0, 0.0, 0.0, 0.0, 0.0, 1.667049872021076E9, 0.0, 2022-10-29 15:24:32.021
24.0, 0.0, -5116.809572626371, -5121.583554919809, -1269.026592864655, 0.0, 0.01600000075995922, 1.008000047877431, 0.0, 0.0, 0.0, 0.0, 0.0, 1.667049872021076E9, 0.0, 2022-10-29 15:24:32.021
25.0, 0.0, -5234.287310034502, -5204.859907233156, -1309.1538494392298, 0.0, 0.01600000075995922, 1.008000047877431, 0.0, 0.0, 0.0, 0.0, 0.0, 1.6670498720347176E9, 0.0, 2022-10-29 15:24:32.034
25.0, 0.0, -5420.904577923473, -5391.589372120798, -1279.711487038061, 0.0, 0.01600000075995922, 1.008000047877431, 0.0, 0.0, 0.0, 0.0, 0.0, 1.6670498720347176E9, 0.0, 2022-10-29 15:24:32.034
26.0, 0.0, -5619.52505472023, -5604.428948549088, -1259.1326875318773, 0.0, 0.01600000075995922, 1.008000047877431, 0.0, 0.0, 0.0, 0.0, 0.0, 1.6670498720504608E9, 0.0, 2022-10-29 15:24:32.050
26.0, 0.0, -5614.749202476814, -5610.788648423739, -1297.3993438784964, 0.0, 0.01600000075995922, 1.008000047877431, 0.0, 0.0, 0.0, 0.0, 0.0, 1.6670498720504608E9, 0.0, 2022-10-29 15:24:32.050
27.0, 0.0, -5732.582230380736, -5699.42427737359, -1292.2569814394228, 0.0, 0.01600000075995922, 1.008000047877431, 0.0, 0.0, 0.0, 0.0, 0.0, 1.6670498720511913E9, 0.0, 2022-10-29 15:24:32.051
27.0, 0.0, -5927.161745275371, -5888.592157032341, -1292.2644612393342, 0.0, 0.01600000075995922, 1.008000047877431, 0.0, 0.0, 0.0, 0.0, 0.0, 1.6670498720511913E9, 0.0, 2022-10-29 15:24:32.051
28.0, 0.0, -6116.368893883657, -6095.967739625368, -1261.2663004565984, 0.0, 0.01600000075995922, 1.008000047877431, 0.0, 0.0, 0.0, 0.0, 0.0, 1.6670498720646715E9, 0.0, 2022-10-29 15:24:32.064
28.0, 0.0, -6097.527277906891, -6103.004361391999, -1307.9552115034312, 0.0, 0.01600000075995922, 1.008000047877431, 0.0, 0.0, 0.0, 0.0, 0.0, 1.6670498720646715E9, 0.0, 2022-10-29 15:24:32.064
29.0, 0.0, -6203.471163851675, -6176.41111772228, -1290.661914108321, 0.0, 0.01600000075995922, 1.008000047877431, 0.0, 0.0, 0.0, 0.0, 0.0, 1.6670498720803444E9, 0.0, 2022-10-29 15:24:32.080
29.0, 0.0, -6409.666808008682, -6368.600836545229, -1274.1558656538837, 0.0, 0.01600000075995922, 1.008000047877431, 0.0, 0.0, 0.0, 0.0, 0.0, 1.6670498720803444E9, 0.0, 2022-10-29 15:24:32.080
30.0, 0.0, -6579.370378348045, -6569.738266012166, -1291.3294862504117, 0.0, 0.01600000075995922, 1.008000047877431, 0.0, 0.0, 0.0, 0.0, 0.0, 1.6670498720811784E9, 0.0, 2022-10-29 15:24:32.081
30.0, 0.0, -6561.280482262373, -6567.535464938264, -1315.736073361244, 0.0, 0.01600000075995922, 1.008000047877431, 0.0, 0.0, 0.0, 0.0, 0.0, 1.6670498720811784E9, 0.0, 2022-10-29 15:24:32.081
31.0, 0.0, -6671.136303560808, -6630.837011588272, -1343.0878316871822, 0.0, 0.01600000075995922, 1.008000047877431, 0.0, 0.0, 0.0, 0.0, 0.0, 1.6670498720947428E9, 0.0, 2022-10-29 15:24:32.094
31.0, 0.0, -6844.663921604864, -6808.029731588904, -1359.057204497978, 0.0, 0.01600000075995922, 1.008000047877431, 0.0, 0.0, 0.0, 0.0, 0.0, 1.6670498720947428E9, 0.0, 2022-10-29 15:24:32.094
32.0, 0.0, -6999.276995623019, -6992.251593556255, -1349.9711175556295, 0.0, 0.01600000075995922, 1.008000047877431, 0.0, 0.0, 0.0, 0.0, 0.0, 1.66704987211045E9, 0.0, 2022-10-29 15:24:32.110
32.0, 0.0, -6998.977803626563, -7007.889985220972, -1326.9595131282695, 0.0, 0.01600000075995922, 1.008000047877431, 0.0, 0.0, 0.0, 0.0, 0.0, 1.66704987211045E9, 0.0, 2022-10-29 15:24:32.110
33.0, 0.0, -7117.835564118344, -7088.413771166932, -1305.7206212799065, 0.0, 0.01600000075995922, 1.008000047877431, 0.0, 0.0, 0.0, 0.0, 0.0, 1.667049872111184E9, 0.0, 2022-10-29 15:24:32.111
33.0, 0.0, -7349.9150558686815, -7304.415433007758, -1260.3687244672328, 0.0, 0.01600000075995922, 1.008000047877431, 0.0, 0.0, 0.0, 0.0, 0.0, 1.667049872111184E9, 0.0, 2022-10-29 15:24:32.111
34.0, 0.0, -7557.2121005626395, -7528.504628502764, -1245.8859618888237, 0.0, 0.01600000075995922, 1.008000047877431, 0.0, 0.0, 0.0, 0.0, 0.0, 1.6670498721247847E9, 0.0, 2022-10-29 15:24:32.124
34.0, 0.0, -7545.352877803147, -7539.827175618615, -1338.7514176885597, 0.0, 0.01600000075995922, 1.008000047877431, 0.0, 0.0, 0.0, 0.0, 0.0, 1.6670498721247847E9, 0.0, 2022-10-29 15:24:32.124
35.0, 0.0, -7630.839510990307, -7602.485459476244, -1299.1496170577593, 0.0, 0.01600000075995922, 1.008000047877431, 0.0, 0.0, 0.0, 0.0, 0.0, 1.6670498721404965E9, 0.0, 2022-10-29 15:24:32.140
35.0, 0.0, -7859.983181275427, -7816.706928938162, -1235.737743359059, 0.0, 0.01600000075995922, 1.008000047877431, 0.0, 0.0, 0.0, 0.0, 0.0, 1.6670498721404965E9, 0.0, 2022-10-29 15:24:32.140
36.0, 0.0, -8070.563858130481, -8052.135501098819, -1218.7754271100275, 0.0, 0.01600000075995922, 1.008000047877431, 0.0, 0.0, 0.0, 0.0, 0.0, 1.6670498721410725E9, 0.0, 2022-10-29 15:24:32.141
36.0, 0.0, -8042.4098912640475, -8047.303550356068, -1353.0939340186305, 0.0, 0.01600000075995922, 1.008000047877431, 0.0, 0.0, 0.0, 0.0, 0.0, 1.6670498721410725E9, 0.0, 2022-10-29 15:24:32.141
37.0, 0.0, -8120.663557936903, -8092.661057018675, -1318.2717255312018, 0.0, 0.01600000075995922, 1.008000047877431, 0.0, 0.0, 0.0, 0.0, 0.0, 1.6670498721547475E9, 0.0, 2022-10-29 15:24:32.154
37.0, 0.0, -7885.6463747713715, -8326.65163764637, -1206.551564104855, 0.0, 0.01600000075995922, 1.008000047877431, 0.0, 0.0, 0.0, 0.0, 0.0, 1.6670498721547475E9, 0.0, 2022-10-29 15:24:32.154
38.0, 0.0, -8093.934492953587, -8558.845196345355, -1211.5667699454352, 0.0, 0.01600000075995922, 1.008000047877431, 0.0, 0.0, 0.0, 0.0, 0.0, 1.6670498721704288E9, 0.0, 2022-10-29 15:24:32.170
38.0, 0.0, -8060.20433525322, -8546.75409978861, -1382.6784126181155, 0.0, 0.01600000075995922, 1.008000047877431, 0.0, 0.0, 0.0, 0.0, 0.0, 1.6670498721704288E9, 0.0, 2022-10-29 15:24:32.170
39.0, 0.0, -8140.1484367060475, -8593.932937729638, -1289.5623835213482, 0.0, 0.01600000075995922, 1.008000047877431, 0.0, 0.0, 0.0, 0.0, 0.0, 1.6670498721711905E9, 0.0, 2022-10-29 15:24:32.171
39.0, 0.0, -8362.294754174072, -8831.072514120024, -1213.3151731747203, 0.0, 0.01600000075995922, 1.008000047877431, 0.0, 0.0, 0.0, 0.0, 0.0, 1.6670498721711905E9, 0.0, 2022-10-29 15:24:32.171
40.0, 0.0, -8577.120217478834, -9052.648496844806, -1239.767485561315, 0.0, 0.01600000075995922, 1.008000047877431, 0.0, 0.0, 0.0, 0.0, 0.0, 1.6670498722011409E9, 0.0, 2022-10-29 15:24:32.201
40.0, 0.0, -8558.865765795112, -9052.169789650477, -1362.193110610824, 0.0, 0.01600000075995922, 1.008000047877431, 0.0, 0.0, 0.0, 0.0, 0.0, 1.6670498722011409E9, 0.0, 2022-10-29 15:24:32.201
41.0, 0.0, -8624.261656420305, -9087.825995828025, -1312.4898401997052, 0.0, 0.01600000075995922, 1.008000047877431, 0.0, 0.0, 0.0, 0.0, 0.0, 1.66704987220187E9, 0.0, 2022-10-29 15:24:32.201
41.0, 0.0, -8388.537632163148, -9330.758677249774, -1185.1481166584417, 0.0, 0.01600000075995922, 1.008000047877431, 0.0, 0.0, 0.0, 0.0, 0.0, 1.66704987220187E9, 0.0, 2022-10-29 15:24:32.201
42.0, 0.0, -8610.046296688728, -9574.699261709582, -1193.200121263042, 0.0, 0.01600000075995922, 1.008000047877431, 0.0, 0.0, 0.0, 0.0, 0.0, 1.6670498722026103E9, 0.0, 2022-10-29 15:24:32.202
42.0, 0.0, -8558.749828896485, -9544.387372568715, -1422.676642644219, 0.0, 0.01600000075995922, 1.008000047877431, 0.0, 0.0, 0.0, 0.0, 0.0, 1.6670498722026103E9, 0.0, 2022-10-29 15:24:32.202
43.0, 0.0, -8599.683033911511, -9569.100631475914, -1331.752194921486, 0.0, 0.01600000075995922, 1.008000047877431, 0.0, 0.0, 0.0, 0.0, 0.0, 1.6670498722147062E9, 0.0, 2022-10-29 15:24:32.214
43.0, 0.0, -8391.215400531422, -9326.895360595547, -1177.6739265969954, 0.0, 0.01600000075995922, 1.008000047877431, 0.0, 0.0, 0.0, 0.0, 0.0, 1.6670498722147062E9, 0.0, 2022-10-29 15:24:32.214
44.0, 0.0, -8612.675446357578, -9086.22531864699, -1203.2324028941803, 0.0, 0.01600000075995922, 1.008000047877431, 0.0, 0.0, 0.0, 0.0, 0.0, 1.6670498722304077E9, 0.0, 2022-10-29 15:24:32.230
44.0, 0.0, -8554.864072842523, -9056.631490297616, -1425.4086395618506, 0.0, 0.01600000075995922, 1.008000047877431, 0.0, 0.0, 0.0, 0.0, 0.0, 1.6670498722304077E9, 0.0, 2022-10-29 15:24:32.230
45.0, 0.0, -8613.554322847165, -9078.906334433705, -1320.6615216028877, 0.0, 0.01600000075995922, 1.008000047877431, 0.0, 0.0, 0.0, 0.0, 0.0, 1.667049872231134E9, 0.0, 2022-10-29 15:24:32.231
45.0, 0.0, -8372.927289748099, -8833.941017386038, -1176.2770739635453, 0.0, 0.01600000075995922, 1.008000047877431, 0.0, 0.0, 0.0, 0.0, 0.0, 1.667049872231134E9, 0.0, 2022-10-29 15:24:32.231
46.0, 0.0, -8607.839755714871, -8597.616739185993, -1187.3583975322545, 0.0, 0.01600000075995922, 1.008000047877431, 0.0, 0.0, 0.0, 0.0, 0.0, 1.6670498722448049E9, 0.0, 2022-10-29 15:24:32.244
46.0, 0.0, -8561.506135163829, -8569.414153620135, -952.7301639621146, 0.0, 0.01600000075995922, 1.008000047877431, 0.0, 0.0, 0.0, 0.0, 0.0, 1.6670498722448049E9, 0.0, 2022-10-29 15:24:32.244
47.0, 0.0, -8613.666519845836, -8584.130659945775, -830.8318648063578, 0.0, 0.01600000075995922, 1.008000047877431, 0.0, 0.0, 0.0, 0.0, 0.0, 1.6670498722604132E9, 0.0, 2022-10-29 15:24:32.260
47.0, 0.0, -8380.95311505301, -8342.594831157476, -688.478182842955, 0.0, 0.01600000075995922, 1.008000047877431, 0.0, 0.0, 0.0, 0.0, 0.0, 1.6670498722604132E9, 0.0, 2022-10-29 15:24:32.260
48.0, 0.0, -8588.62040984258, -8577.899986619595, -725.3274171063676, 0.0, 0.01600000075995922, 1.008000047877431, 0.0, 0.0, 0.0, 0.0, 0.0, 1.667049872261171E9, 0.0, 2022-10-29 15:24:32.261
48.0, 0.0, -8561.412637664936, -8564.911314073484, -931.9681093581021, 0.0, 0.01600000075995922, 1.008000047877431, 0.0, 0.0, 0.0, 0.0, 0.0, 1.667049872261171E9, 0.0, 2022-10-29 15:24:32.261
49.0, 0.0, -8586.469967368059, -8573.632760770153, -829.2928959745914, 0.0, 0.01600000075995922, 1.008000047877431, 0.0, 0.0, 0.0, 0.0, 0.0, 1.6670498722747393E9, 0.0, 2022-10-29 15:24:32.274
49.0, 0.0, -8378.750313979108, -8350.448621064425, -679.2125807027332, 0.0, 0.01600000075995922, 1.008000047877431, 0.0, 0.0, 0.0, 0.0, 0.0, 1.6670498722747393E9, 0.0, 2022-10-29 15:24:32.274
50.0, 0.0, -8595.056777666323, -8576.037516441662, -722.0381750953384, 0.0, 0.01600000075995922, 1.008000047877431, 0.0, 0.0, 0.0, 0.0, 0.0, 1.667049872290484E9, 0.0, 2022-10-29 15:24:32.290
50.0, 0.0, -8555.25676233787, -8558.03363805497, -939.7265318161808, 0.0, 0.01600000075995922, 1.008000047877431, 0.0, 0.0, 0.0, 0.0, 0.0, 1.667049872290484E9, 0.0, 2022-10-29 15:24:32.290
51.0, 0.0, -8595.112876165658, -8563.894061285537, -830.9216224052943, 0.0, 0.01600000075995922, 1.008000047877431, 0.0, 0.0, 0.0, 0.0, 0.0, 1.6670498722912495E9, 0.0, 2022-10-29 15:24:32.291
51.0, 0.0, -8394.622449391056, -8345.605450621806, -661.0497565679252, 0.0, 0.01600000075995922, 1.008000047877431, 0.0, 0.0, 0.0, 0.0, 0.0, 1.6670498722912495E9, 0.0, 2022-10-29 15:24:32.291
52.0, 0.0, -8620.218824568205, -8584.800102037843, -720.9143351586536, 0.01600000075995922, 0.01600000075995922, 1.008000047877431, 0.0, 0.0, 0.0, 0.0, 0.0, 1.6670498723047357E9, 0.0, 2022-10-29 15:24:32.304
52.0, 0.0, -8574.704242107458, -8565.29652376892, -957.5415452551097, 0.01600000075995922, 0.01600000075995922, 1.008000047877431, 0.0, 0.0, 0.0, 0.0, 0.0, 1.6670498723047357E9, 0.0, 2022-10-29 15:24:32.304
53.0, 0.0, -8595.55418436043, -8559.83065998368, -837.3224611794576, 0.01600000075995922, 0.01600000075995922, 1.008000047877431, 0.0, 0.0, 0.0, 0.0, 0.0, 1.667049872320397E9, 0.0, 2022-10-29 15:24:32.320
53.0, 0.0, -8371.386450966354, -8338.288336358499, -649.9777827491052, 0.01600000075995922, 0.01600000075995922, 1.008000047877431, 0.0, 0.0, 0.0, 0.0, 0.0, 1.667049872320397E9, 0.0, 2022-10-29 15:24:32.320
54.0, 0.0, -8136.348698351067, -8119.504188950639, -642.5522113870829, 0.01600000075995922, 0.01600000075995922, 1.008000047877431, 0.0, 0.0, 0.0, 0.0, 0.0, 1.6670498723211436E9, 0.0, 2022-10-29 15:24:32.321
54.0, 0.0, -8085.572076652665, -8085.418740754481, -527.4025617013685, 0.01600000075995922, 0.01600000075995922, 1.008000047877431, 0.0, 0.0, 0.0, 0.0, 0.0, 1.6670498723211436E9, 0.0, 2022-10-29 15:24:32.321
55.0, 0.0, -8090.246951597277, -8058.829922019504, -377.43257347820327, 0.01600000075995922, 0.01600000075995922, 1.008000047877431, 0.0, 0.0, 0.0, 0.0, 0.0, 1.6670498723511305E9, 0.0, 2022-10-29 15:24:32.351
55.0, 0.0, -7888.574716436677, -7848.623235160019, -141.67115022148937, 0.01600000075995922, 0.01600000075995922, 1.008000047877431, 0.0, 0.0, 0.0, 0.0, 0.0, 1.6670498723511305E9, 0.0, 2022-10-29 15:24:32.351
56.0, 0.0, -7659.790076547302, -7638.654031947721, -139.32436299929395, 0.01600000075995922, 0.01600000075995922, 1.008000047877431, 0.0, 0.0, 0.0, 0.0, 0.0, 1.6670498723518598E9, 0.0, 2022-10-29 15:24:32.351
56.0, 0.0, -7603.111892718822, -7585.3978565786965, -51.93973058462143, 0.01600000075995922, 0.01600000075995922, 1.008000047877431, 0.0, 0.0, 0.0, 0.0, 0.0, 1.6670498723518598E9, 0.0, 2022-10-29 15:24:32.351
57.0, 0.0, -7596.815771143418, -7563.25951879099, 112.63456696551293, 0.01600000075995922, 0.01600000075995922, 1.008000047877431, 0.0, 0.0, 0.0, 0.0, 0.0, 1.6670498723525732E9, 0.0, 2022-10-29 15:24:32.352
57.0, 0.0, -7388.172362465411, -7353.467960826587, 349.4506420097314, 0.01600000075995922, 0.01600000075995922, 1.008000047877431, 0.0, 0.0, 0.0, 0.0, 0.0, 1.6670498723525732E9, 0.0, 2022-10-29 15:24:32.352
58.0, 0.0, -7177.623474759981, -7151.34132782137, 368.23802943713963, 0.01600000075995922, 0.01600000075995922, 1.008000047877431, 0.0, 0.0, 0.0, 0.0, 0.0, 1.6670498723647316E9, 0.0, 2022-10-29 15:24:32.364
58.0, 0.0, -7110.413732656278, -7100.317872725893, 408.8514730059542, 0.01600000075995922, 0.01600000075995922, 1.008000047877431, 0.0, 0.0, 0.0, 0.0, 0.0, 1.6670498723647316E9, 0.0, 2022-10-29 15:24:32.364
59.0, 0.0, -7094.715502592269, -7064.517680400051, 605.2747585787438, 0.01600000075995922, 0.01600000075995922, 1.008000047877431, 0.0, 0.0, 0.0, 0.0, 0.0, 1.667049872380418E9, 0.0, 2022-10-29 15:24:32.380
59.0, 0.0, -6904.86883109156, -6865.598011606839, 361.80353156337515, 0.01600000075995922, 0.01600000075995922, 1.008000047877431, 0.0, 0.0, 0.0, 0.0, 0.0, 1.667049872380418E9, 0.0, 2022-10-29 15:24:32.380
60.0, 0.0, -6687.13559557125, -6665.176772981416, 374.9100109580904, 0.01600000075995922, 0.01600000075995922, 1.008000047877431, 0.0, 0.0, 0.0, 0.0, 0.0, 1.667049872381133E9, 0.0, 2022-10-29 15:24:32.381
60.0, 0.0, -6609.053964296356, -6603.74891620921, 394.9427850707434, 0.01600000075995922, 0.01600000075995922, 1.008000047877431, 0.0, 0.0, 0.0, 0.0, 0.0, 1.667049872381133E9, 0.0, 2022-10-29 15:24:32.381
61.0, 0.0, -6610.5536641785875, -6563.905892031267, 592.2636466328986, 0.01600000075995922, 0.01600000075995922, 1.008000047877431, 0.0, 0.0, 0.0, 0.0, 0.0, 1.6670498723947728E9, 0.0, 2022-10-29 15:24:32.394
61.0, 0.0, -6410.059497504029, -6374.107839229982, 373.9095877199434, 0.01600000075995922, 0.01600000075995922, 1.008000047877431, 0.0, 0.0, 0.0, 0.0, 0.0, 1.6670498723947728E9, 0.0, 2022-10-29 15:24:32.394
62.0, 0.0, -6186.7687706495635, -6179.872395131271, 386.0698724258691, 0.0, 0.01600000075995922, 1.008000047877431, 0.0, 0.0, 0.0, 0.0, 0.0, 1.667049872410388E9, 0.0, 2022-10-29 15:24:32.410
62.0, 0.0, -6122.809001607355, -6118.668932356406, 386.62898746924475, 0.0, 0.01600000075995922, 1.008000047877431, 0.0, 0.0, 0.0, 0.0, 0.0, 1.667049872410388E9, 0.0, 2022-10-29 15:24:32.410
63.0, 0.0, -6097.327193259262, -6062.037497277372, 564.5958667607047, 0.0, 0.01600000075995922, 1.008000047877431, 0.0, 0.0, 0.0, 0.0, 0.0, 1.6670498724111876E9, 0.0, 2022-10-29 15:24:32.411
63.0, 0.0, -5927.601183520164, -5882.06790155964, 403.2865018718876, 0.0, 0.01600000075995922, 1.008000047877431, 0.0, 0.0, 0.0, 0.0, 0.0, 1.6670498724111876E9, 0.0, 2022-10-29 15:24:32.411
64.0, 0.0, -5715.26836353587, -5697.013911852147, 388.3979601482861, 0.0, 0.01600000075995922, 1.008000047877431, 0.0, 0.0, 0.0, 0.0, 0.0, 1.6670498724247625E9, 0.0, 2022-10-29 15:24:32.424
64.0, 0.0, -5633.151380208787, -5625.12181500392, 378.21421256894246, 0.0, 0.01600000075995922, 1.008000047877431, 0.0, 0.0, 0.0, 0.0, 0.0, 1.6670498724247625E9, 0.0, 2022-10-29 15:24:32.424
65.0, 0.0, -5591.056936257519, -5559.174289135262, 531.7782446495257, 0.0, 0.01600000075995922, 1.008000047877431, 0.0, 0.0, 0.0, 0.0, 0.0, 1.667049872440426E9, 0.0, 2022-10-29 15:24:32.440
65.0, 0.0, -5436.440122339409, -5396.288556415122, 435.87972998572513, 0.0, 0.01600000075995922, 1.008000047877431, 0.0, 0.0, 0.0, 0.0, 0.0, 1.667049872440426E9, 0.0, 2022-10-29 15:24:32.440
66.0, 0.0, -5228.239891806152, -5214.357383170631, 403.92602476431057, 0.0, 0.01600000075995922, 1.008000047877431, 0.0, 0.0, 0.0, 0.0, 0.0, 1.667049872441176E9, 0.0, 2022-10-29 15:24:32.441
66.0, 0.0, -5133.99067302281, -5144.088402903173, 375.723439198453, 0.0, 0.01600000075995922, 1.008000047877431, 0.0, 0.0, 0.0, 0.0, 0.0, 1.667049872441176E9, 0.0, 2022-10-29 15:24:32.441
67.0, 0.0, -5094.390742341988, -5063.682423805818, 506.54513964848593, 0.0, 0.01600000075995922, 1.008000047877431, 0.0, 0.0, 0.0, 0.0, 0.0, 1.6670498724547324E9, 0.0, 2022-10-29 15:24:32.454
67.0, 0.0, -4945.8437860519625, -4899.517645300832, 453.8948280722834, 0.0, 0.01600000075995922, 1.008000047877431, 0.0, 0.0, 0.0, 0.0, 0.0, 1.6670498724547324E9, 0.0, 2022-10-29 15:24:32.454
68.0, 0.0, -4735.971820238512, -4725.36172406422, 407.44527062261477, 0.0, 0.01600000075995922, 1.008000047877431, 0.0, 0.0, 0.0, 0.0, 0.0, 1.6670498724704924E9, 0.0, 2022-10-29 15:24:32.470
68.0, 0.0, -4643.861824229825, -4664.9286806802265, 364.2718655341305, 0.0, 0.01600000075995922, 1.008000047877431, 0.0, 0.0, 0.0, 0.0, 0.0, 1.6670498724704924E9, 0.0, 2022-10-29 15:24:32.470
69.0, 0.0, -4620.721193253994, -4595.256214455701, 571.3950048801489, 0.0, 0.01600000075995922, 1.008000047877431, 0.0, 0.0, 0.0, 0.0, 0.0, 1.6670498724711952E9, 0.0, 2022-10-29 15:24:32.471
69.0, 0.0, -4446.137053472456, -4404.482047765981, 407.90153841720894, 0.0, 0.01600000075995922, 1.008000047877431, 0.0, 0.0, 0.0, 0.0, 0.0, 1.6670498724711952E9, 0.0, 2022-10-29 15:24:32.471
70.0, 0.0, -4246.325418539811, -4223.770081907045, 405.33596704760566, 0.0, 0.01600000075995922, 0.9920000471174717, 0.0, 0.0, 0.0, 0.0, 0.0, 1.6670498724847348E9, 0.0, 2022-10-29 15:24:32.484
70.0, 0.0, -4157.1063651968725, -4151.10382576799, 350.2173215006478, 0.0, 0.01600000075995922, 0.9920000471174717, 0.0, 0.0, 0.0, 0.0, 0.0, 1.6670498724847348E9, 0.0, 2022-10-29 15:24:32.484
71.0, 0.0, -4094.939878183417, -4056.044918644242, 454.7475252621807, 0.0, 0.01600000075995922, 0.9920000471174717, 0.0, 0.0, 0.0, 0.0, 0.0, 1.667049872500506E9, 0.0, 2022-10-29 15:24:32.500
71.0, 0.0, -3970.9154459028505, -3918.732621821109, 512.8300415240228, 0.0, 0.01600000075995922, 0.9920000471174717, 0.0, 0.0, 0.0, 0.0, 0.0, 1.667049872500506E9, 0.0, 2022-10-29 15:24:32.500
72.0, 0.0, -3783.2771853259765, -3748.993522432167, 426.70762534439564, 0.0, 0.01600000075995922, 0.9920000471174717, 0.0, 0.0, 0.0, 0.0, 0.0, 1.6670498725012171E9, 0.0, 2022-10-29 15:24:32.501
72.0, 0.0, -3679.7455348526128, -3667.7703751944937, 322.91418187413365, 0.0, 0.01600000075995922, 0.9920000471174717, 0.0, 0.0, 0.0, 0.0, 0.0, 1.6670498725012171E9, 0.0, 2022-10-29 15:24:32.501
73.0, 0.0, -3602.3052964201197, -3555.9716758690774, 425.15930676274, 0.0, 0.01600000075995922, 0.9920000471174717, 0.0, 0.0, 0.0, 0.0, 0.0, 1.6670498725146644E9, 0.0, 2022-10-29 15:24:32.514
73.0, 0.0, -3484.4516990664415, -3423.8503601844423, 528.7564054853283, 0.0, 0.01600000075995922, 0.9920000471174717, 0.0, 0.0, 0.0, 0.0, 0.0, 1.6670498725146644E9, 0.0, 2022-10-29 15:24:32.514
74.0, 0.0, -3302.7262203195132, -3272.844419673551, 455.84331594919786, 0.0, 0.01600000075995922, 0.9920000471174717, 0.0, 0.0, 0.0, 0.0, 0.0, 1.6670498725304277E9, 0.0, 2022-10-29 15:24:32.530
74.0, 0.0, -3187.9038118799217, -3184.7847353168763, 300.9777986840345, 0.0, 0.01600000075995922, 0.9920000471174717, 0.0, 0.0, 0.0, 0.0, 0.0, 1.6670498725304277E9, 0.0, 2022-10-29 15:24:32.530
75.0, 0.0, -3087.4893680196255, -3057.7721229717135, 416.04330062074587, 0.0, 0.01600000075995922, 0.9920000471174717, 0.0, 0.0, 0.0, 0.0, 0.0, 1.6670498725311673E9, 0.0, 2022-10-29 15:24:32.531
75.0, 0.0, -2979.4268287499435, -2933.8262285902165, 553.8118652384728, 0.0, 0.01600000075995922, 0.9920000471174717, 0.0, 0.0, 0.0, 0.0, 0.0, 1.6670498725311673E9, 0.0, 2022-10-29 15:24:32.531
76.0, 0.0, -2818.9365019514225, -2783.762742868159, 465.5277868844569, 0.0, 0.01600000075995922, 0.9920000471174717, 0.0, 0.0, 0.0, 0.0, 0.0, 1.6670498725446703E9, 0.0, 2022-10-29 15:24:32.544
76.0, 0.0, -2715.9733162713237, -2701.458764543291, 301.34991872962564, 0.0, 0.01600000075995922, 0.9920000471174717, 0.0, 0.0, 0.0, 0.0, 0.0, 1.6670498725446703E9, 0.0, 2022-10-29 15:24:32.544
77.0, 0.0, -2603.4864753540605, -2555.8738090181723, 397.06517829559743, 0.0, 0.01600000075995922, 0.9920000471174717, 0.0, 0.0, 0.0, 0.0, 0.0, 1.6670498725604498E9, 0.0, 2022-10-29 15:24:32.560
77.0, 0.0, -2501.362897214014, -2439.2207195502706, 552.5384293035604, 0.0, 0.01600000075995922, 0.9920000471174717, 0.0, 0.0, 0.0, 0.0, 0.0, 1.6670498725604498E9, 0.0, 2022-10-29 15:24:32.560
78.0, 0.0, -2330.6514238365926, -2293.873247672338, 478.7913420773111, 0.0, 0.01600000075995922, 0.9920000471174717, 0.0, 0.0, 0.0, 0.0, 0.0, 1.6670498725611475E9, 0.0, 2022-10-29 15:24:32.561
78.0, 0.0, -2209.845175467897, -2203.0123782488517, 285.4198148683645, 0.0, 0.01600000075995922, 0.9920000471174717, 0.0, 0.0, 0.0, 0.0, 0.0, 1.6670498725611475E9, 0.0, 2022-10-29 15:24:32.561
79.0, 0.0, -2103.3234749799594, -2074.212093724869, 428.38497047452256, 0.0, 0.01600000075995922, 0.9920000471174717, 0.0, 0.0, 0.0, 0.0, 0.0, 1.667049872574769E9, 0.0, 2022-10-29 15:24:32.574
79.0, 0.0, -2003.2531019155867, -1955.6628749794327, 545.6850626347587, 0.0, 0.01600000075995922, 0.9920000471174717, 0.0, 0.0, 0.0, 0.0, 0.0, 1.667049872574769E9, 0.0, 2022-10-29 15:24:32.574
80.0, 0.0, -1834.811747811269, -1806.687700144481, 460.3293259460479, 0.0, 0.01600000075995922, 0.9920000471174717, 0.0, 0.0, 0.0, 0.0, 0.0, 1.667049872590417E9, 0.0, 2022-10-29 15:24:32.590
80.0, 0.0, -1730.5059380470775, -1719.6864074752666, 290.8482796540484, 0.0, 0.01600000075995922, 0.9920000471174717, 0.0, 0.0, 0.0, 0.0, 0.0, 1.667049872590417E9, 0.0, 2022-10-29 15:24:32.590
81.0, 0.0, -1633.1656919503585, -1587.6398897897452, 423.5287103820592, 0.0, 0.01600000075995922, 0.9920000471174717, 0.0, 0.0, 0.0, 0.0, 0.0, 1.6670498725911384E9, 0.0, 2022-10-29 15:24:32.591
81.0, 0.0, -1523.2930411021225, -1465.7845994834788, 550.7208379250951, 0.0, 0.01600000075995922, 0.9920000471174717, 0.0, 0.0, 0.0, 0.0, 0.0, 1.6670498725911384E9, 0.0, 2022-10-29 15:24:32.591
82.0, 0.0, -1340.3595746695064, -1324.565977156628, 502.3788910978474, 0.0, 0.01600000075995922, 0.9920000471174717, 0.0, 0.0, 0.0, 0.0, 0.0, 1.6670498726046624E9, 0.0, 2022-10-29 15:24:32.604
82.0, 0.0, -1241.9889861349948, -1233.6190900341608, 746.7271246528253, 0.0, 0.01600000075995922, 0.9920000471174717, 0.0, 0.0, 0.0, 0.0, 0.0, 1.6670498726046624E9, 0.0, 2022-10-29 15:24:32.604
83.0, 0.0, -1127.4377204421908, -1091.964769362472, 946.53875958547, 0.0, 0.01600000075995922, 0.9920000471174717, 0.0, 0.0, 0.0, 0.0, 0.0, 1.6670498726203575E9, 0.0, 2022-10-29 15:24:32.620
83.0, 0.0, -1020.8300022552721, -980.2745271357708, 1021.1628533513285, 0.0, 0.01600000075995922, 0.9920000471174717, 0.0, 0.0, 0.0, 0.0, 0.0, 1.6670498726203575E9, 0.0, 2022-10-29 15:24:32.620
84.0, 0.0, -859.6851929645054, -836.6922880369239, 993.6072704778053, 0.0, 0.01600000075995922, 0.9920000471174717, 0.0, 0.0, 0.0, 0.0, 0.0, 1.667049872621124E9, 0.0, 2022-10-29 15:24:32.621
84.0, 0.0, -756.3255778891034, -745.9062166125514, 1215.7853770954534, 0.0, 0.01600000075995922, 0.9920000471174717, 0.0, 0.0, 0.0, 0.0, 0.0, 1.667049872621124E9, 0.0, 2022-10-29 15:24:32.621
85.0, 0.0, -613.0817997362465, -574.2242391966283, 1351.9252152824774, 0.0, 0.01600000075995922, 0.9920000471174717, 0.0, 0.0, 0.0, 0.0, 0.0, 1.667049872634725E9, 0.0, 2022-10-29 15:24:32.634
85.0, 0.0, -530.6113958633505, -480.03672876255587, 1587.4211056423374, 0.0, 0.01600000075995922, 0.9920000471174717, 0.0, 0.0, 0.0, 0.0, 0.0, 1.667049872634725E9, 0.0, 2022-10-29 15:24:32.634
86.0, 0.0, -372.563223735895, -343.7809536769055, 1474.621983078774, 0.0, 0.01600000075995922, 0.9920000471174717, 0.0, 0.0, 0.0, 0.0, 0.0, 1.6670498726504898E9, 0.0, 2022-10-29 15:24:32.650
86.0, 0.0, -265.224355107639, -258.55985338659957, 1239.647808762733, 0.0, 0.01600000075995922, 0.9920000471174717, 0.0, 0.0, 0.0, 0.0, 0.0, 1.6670498726504898E9, 0.0, 2022-10-29 15:24:32.650
87.0, 0.0, -133.74256231542677, -101.15307410154492, 1399.5846303678118, 0.0, 0.01600000075995922, 0.9920000471174717, 0.0, 0.0, 0.0, 0.0, 0.0, 1.6670498726511204E9, 0.0, 2022-10-29 15:24:32.651
87.0, 0.0, -41.63443625671789, 4.815121192950755, 1554.4333180831745, 0.0, 0.01600000075995922, 0.9920000471174717, 0.0, 0.0, 0.0, 0.0, 0.0, 1.6670498726511204E9, 0.0, 2022-10-29 15:24:32.651
88.0, 0.0, 97.36642539640889, 126.81439764751121, 1484.089539816603, 0.0, 0.01600000075995922, 0.9920000471174717, 0.0, 0.0, 0.0, 0.0, 0.0, 1.667049872664881E9, 0.0, 2022-10-29 15:24:32.664
88.0, 0.0, 220.1922197411768, 229.84490152681246, 1694.0606129788794, 0.0, 0.01600000075995922, 0.9920000471174717, 0.0, 0.0, 0.0, 0.0, 0.0, 1.667049872664881E9, 0.0, 2022-10-29 15:24:32.664
89.0, 0.0, 351.7562903324142, 379.1772368075326, 1478.397412084043, 0.0, 0.01600000075995922, 0.9920000471174717, 0.0, 0.0, 0.0, 0.0, 0.0, 1.6670498726803532E9, 0.0, 2022-10-29 15:24:32.680
89.0, 0.0, 455.22249255655333, 500.65105731831864, 1497.9066002028994, 0.0, 0.01600000075995922, 0.9920000471174717, 0.0, 0.0, 0.0, 0.0, 0.0, 1.6670498726803532E9, 0.0, 2022-10-29 15:24:32.680
90.0, 0.0, 619.8828078056686, 634.0233695381321, 1474.1208364847116, 0.0, 0.01600000075995922, 0.9920000471174717, 0.0, 0.0, 0.0, 0.0, 0.0, 1.6670498726810956E9, 0.0, 2022-10-29 15:24:32.681
90.0, 0.0, 709.8760204394348, 720.0672478186898, 1697.3012362904847, 0.0, 0.01600000075995922, 0.9920000471174717, 0.0, 0.0, 0.0, 0.0, 0.0, 1.6670498726810956E9, 0.0, 2022-10-29 15:24:32.681
91.0, 0.0, 846.8966050660238, 888.3010374754667, 1914.2715322198346, 0.0, 0.01600000075995922, 0.9920000471174717, 0.0, 0.0, 0.0, 0.0, 0.0, 1.6670498726948123E9, 0.0, 2022-10-29 15:24:32.694
91.0, 0.0, 942.5052774832584, 994.142076171469, 2031.1303161852993, 0.0, 0.01600000075995922, 0.9920000471174717, 0.0, 0.0, 0.0, 0.0, 0.0, 1.6670498726948123E9, 0.0, 2022-10-29 15:24:32.694
92.0, 0.0, 1068.0761583955027, 1102.6590132857673, 2007.8195197614841, 0.0, 0.01600000075995922, 0.9920000471174717, 0.0, 0.0, 0.0, 0.0, 0.0, 1.6670498727104607E9, 0.0, 2022-10-29 15:24:32.710
92.0, 0.0, 1206.5609138547443, 1205.0612139725126, 2146.7736326651648, 0.0, 0.01600000075995922, 0.9920000471174717, 0.0, 0.0, 0.0, 0.0, 0.0, 1.6670498727104607E9, 0.0, 2022-10-29 15:24:32.710
93.0, 0.0, 1353.499713163823, 1385.5581355839968, 1933.7059223395772, 0.0, 0.01600000075995922, 0.9920000471174717, 0.0, 0.0, 0.0, 0.0, 0.0, 1.6670498727112284E9, 0.0, 2022-10-29 15:24:32.711
93.0, 0.0, 1434.979043548461, 1483.4369272743352, 2024.1684924177825, 0.0, 0.01600000075995922, 0.9920000471174717, 0.0, 0.0, 0.0, 0.0, 0.0, 1.6670498727112284E9, 0.0, 2022-10-29 15:24:32.711
94.0, 0.0, 1563.3810287271626, 1587.8661537370645, 2017.2010588003322, 0.0, 0.01600000075995922, 0.9920000471174717, 0.0, 0.0, 0.0, 0.0, 0.0, 1.667049872724889E9, 0.0, 2022-10-29 15:24:32.724
94.0, 0.0, 1693.1031985902227, 1692.6992893950082, 2132.6798196821474, 0.0, 0.01600000075995922, 0.9920000471174717, 0.0, 0.0, 0.0, 0.0, 0.0, 1.667049872724889E9, 0.0, 2022-10-29 15:24:32.724
95.0, 0.0, 1866.928138680756, 1901.3913167724386, 2315.063520821277, 0.0, 0.01600000075995922, 0.9920000471174717, 0.0, 0.0, 0.0, 0.0, 0.0, 1.667049872740456E9, 0.0, 2022-10-29 15:24:32.740
95.0, 0.0, 1933.4366495427676, 1985.0697083310224, 2115.2032671892084, 0.0, 0.01600000075995922, 0.9920000471174717, 0.0, 0.0, 0.0, 0.0, 0.0, 1.667049872740456E9, 0.0, 2022-10-29 15:24:32.740
96.0, 0.0, 2055.495764396619, 2074.2326631746255, 2042.675387348514, 0.0, 0.01600000075995922, 0.9920000471174717, 0.0, 0.0, 0.0, 0.0, 0.0, 1.6670498727411764E9, 0.0, 2022-10-29 15:24:32.741
96.0, 0.0, 2180.935748810414, 2176.8330785590224, 2126.9110240004957, 0.0, 0.01600000075995922, 0.9920000471174717, 0.0, 0.0, 0.0, 0.0, 0.0, 1.6670498727411764E9, 0.0, 2022-10-29 15:24:32.741
97.0, 0.0, 2378.4716546200216, 2402.6650674333796, 2265.493016858585, 0.0, 0.01600000075995922, 0.9920000471174717, 0.0, 0.0, 0.0, 0.0, 0.0, 1.6670498727547674E9, 0.0, 2022-10-29 15:24:32.754
97.0, 0.0, 2438.8242901549675, 2472.105659860652, 2165.237518746406, 0.0, 0.01600000075995922, 0.9920000471174717, 0.0, 0.0, 0.0, 0.0, 0.0, 1.6670498727547674E9, 0.0, 2022-10-29 15:24:32.754
98.0, 0.0, 2542.5092765265144, 2561.8557789972983, 2025.5036367019638, 0.0, 0.01600000075995922, 0.9920000471174717, 0.0, 0.0, 0.0, 0.0, 0.0, 1.6670498727703652E9, 0.0, 2022-10-29 15:24:32.770
98.0, 0.0, 2660.0019735344686, 2656.535086275544, 2130.3498620097525, 0.0, 0.01600000075995922, 0.9920000471174717, 0.0, 0.0, 0.0, 0.0, 0.0, 1.6670498727703652E9, 0.0, 2022-10-29 15:24:32.770
99.0, 0.0, 2794.6589413890615, 2840.6110921446234, 1929.0216976450756, 0.0, 0.01600000075995922, 0.9920000471174717, 0.0, 0.0, 0.0, 0.0, 0.0, 1.667049872771155E9, 0.0, 2022-10-29 15:24:32.771
99.0, 0.0, 2900.4887603851967, 2936.073908463586, 2031.2724323836155, 0.0, 0.01600000075995922, 0.9920000471174717, 0.0, 0.0, 0.0, 0.0, 0.0, 1.667049872771155E9, 0.0, 2022-10-29 15:24:32.771
100.0, 0.0, 3077.640341486316, 3077.629121786449, 1997.0710472888313, 0.0, 0.01600000075995922, 0.9920000471174717, 0.0, 0.0, 0.0, 0.0, 0.0, 1.66704987278544E9, 0.0, 2022-10-29 15:24:32.785
100.0, 0.0, 3169.9597718925215, 3168.9499989044853, 2148.3743098462, 0.0, 0.01600000075995922, 0.9920000471174717, 0.0, 0.0, 0.0, 0.0, 0.0, 1.66704987278544E9, 0.0, 2022-10-29 15:24:32.785
0.0, 0.0, -99.01385132689029, -77.24763358477503, 2423.8216814827174, 0.0, 0.01600000075995922, 0.9920000471174717, 0.0, 0.0, 0.0, 0.0, 0.0, 1.667049872786251E9, 0.0, 2022-10-29 15:24:32.786
1.0, 0.0, -2.5524817197583616, 25.407010348979384, 2546.2080375826918, 0.0, 0.01600000075995922, 0.9920000471174717, 0.0, 0.0, 0.0, 0.0, 0.0, 1.6670498727997572E9, 0.0, 2022-10-29 15:24:32.799
1.0, 0.0, 120.60242382111028, 125.55031146248803, 2515.3239437486045, 0.0, 0.01600000075995922, 0.9920000471174717, 0.0, 0.0, 0.0, 0.0, 0.0, 1.6670498727997572E9, 0.0, 2022-10-29 15:24:32.799
2.0, 0.0, 233.80545557988808, 227.54486305406317, 2627.6686684675515, 0.0, 0.01600000075995922, 0.9920000471174717, 0.0, 0.0, 0.0, 0.0, 0.0, 1.667049872815422E9, 0.0, 2022-10-29 15:24:32.815
2.0, 0.0, 415.1214152816683, 428.89546681847423, 2413.067599160131, 0.0, 0.01600000075995922, 0.9920000471174717, 0.0, 0.0, 0.0, 0.0, 0.0, 1.667049872815422E9, 0.0, 2022-10-29 15:24:32.815
3.0, 0.0, 479.6889180666767, 512.6486563761719, 2545.8583569368348, 0.0, 0.01600000075995922, 0.9920000471174717, 0.0, 0.0, 0.0, 0.0, 0.0, 1.6670498728161259E9, 0.0, 2022-10-29 15:24:32.816
3.0, 0.0, 584.0358667303808, 593.8493642141111, 2560.9582030079328, 0.0, 0.01600000075995922, 0.9920000471174717, 0.0, 0.0, 0.0, 0.0, 0.0, 1.6670498728161259E9, 0.0, 2022-10-29 15:24:32.816
4.0, 0.0, 709.5244698436, 698.3945275754668, 2581.9857905087993, 0.0, 0.01600000075995922, 0.9920000471174717, 0.0, 0.0, 0.0, 0.0, 0.0, 1.6670498728297145E9, 0.0, 2022-10-29 15:24:32.829
4.0, 0.0, 909.1921186279505, 933.7894406365231, 2350.3083380036987, 0.0, 0.01600000075995922, 0.9920000471174717, 0.0, 0.0, 0.0, 0.0, 0.0, 1.6670498728297145E9, 0.0, 2022-10-29 15:24:32.829
5.0, 0.0, 971.5680400389247, 1006.4239076259546, 2106.0853910972364, 0.0, 0.01600000075995922, 0.9920000471174717, 0.0, 0.0, 0.0, 0.0, 0.0, 1.667049872845588E9, 0.0, 2022-10-29 15:24:32.845
5.0, 0.0, 1058.1317644133233, 1074.7406601165421, 2087.516787817236, 0.0, 0.01600000075995922, 0.9920000471174717, 0.0, 0.0, 0.0, 0.0, 0.0, 1.667049872845588E9, 0.0, 2022-10-29 15:24:32.845
6.0, 0.0, 1191.234803836327, 1186.9675779868849, 2070.548861718271, 0.0, 0.01600000075995922, 0.9920000471174717, 0.0, 0.0, 0.0, 0.0, 0.0, 1.6670498728461983E9, 0.0, 2022-10-29 15:24:32.846
6.0, 0.0, 1426.3267850009724, 1429.3411443652585, 1847.3647220125422, 0.0, 0.01600000075995922, 0.9920000471174717, 0.0, 0.0, 0.0, 0.0, 0.0, 1.6670498728461983E9, 0.0, 2022-10-29 15:24:32.846
7.0, 0.0, 1461.0087472400628, 1490.0303708962165, 1622.0058304825798, 0.0, 0.01600000075995922, 0.9920000471174717, 0.0, 0.0, 0.0, 0.0, 0.0, 1.6670498728597136E9, 0.0, 2022-10-29 15:24:32.859
7.0, 0.0, 1545.8109787353314, 1559.8206439693458, 1595.819050992839, 0.0, 0.01600000075995922, 0.9920000471174717, 0.0, 0.0, 0.0, 0.0, 0.0, 1.6670498728597136E9, 0.0, 2022-10-29 15:24:32.859
8.0, 0.0, 1688.0692932498641, 1675.4845298989676, 1583.9299090337008, 0.0, 0.01600000075995922, 0.9920000471174717, 0.0, 0.0, 0.0, 0.0, 0.0, 1.667049872875527E9, 0.0, 2022-10-29 15:24:32.875
8.0, 0.0, 1900.2020285865292, 1919.066083963029, 1374.0037146708928, 0.0, 0.01600000075995922, 0.9920000471174717, 0.0, 0.0, 0.0, 0.0, 0.0, 1.667049872875527E9, 0.0, 2022-10-29 15:24:32.875
9.0, 0.0, 1947.5360723757185, 1978.6370804072358, 1603.9869924960658, 0.0, 0.01600000075995922, 0.9920000471174717, 0.0, 0.0, 0.0, 0.0, 0.0, 1.6670498728761475E9, 0.0, 2022-10-29 15:24:32.876
9.0, 0.0, 2052.948892526794, 2057.5414896723814, 1560.7051303088665, 0.0, 0.01600000075995922, 0.9920000471174717, 0.0, 0.0, 0.0, 0.0, 0.0, 1.6670498728761475E9, 0.0, 2022-10-29 15:24:32.876
10.0, 0.0, 2162.9243906238116, 2162.423244029749, 1606.9546031109057, 0.0, 0.01600000075995922, 1.008000047877431, 0.0, 0.0, 0.0, 0.0, 0.0, 1.6670498728897724E9, 0.0, 2022-10-29 15:24:32.889
10.0, 0.0, 2384.6237900471315, 2403.143774627708, 1381.4629451325163, 0.0, 0.01600000075995922, 1.008000047877431, 0.0, 0.0, 0.0, 0.0, 0.0, 1.6670498728897724E9, 0.0, 2022-10-29 15:24:32.889
11.0, 0.0, 2436.2175798858516, 2458.4363255226053, 1615.044006715063, 0.0, 0.03200000151991844, 1.008000047877431, 0.0, 0.0, 0.0, 0.0, 0.0, 1.667049872905414E9, 0.0, 2022-10-29 15:24:32.905
11.0, 0.0, 2532.613501243759, 2548.5417351550423, 1555.923668215517, 0.0, 0.03200000151991844, 1.008000047877431, 0.0, 0.0, 0.0, 0.0, 0.0, 1.667049872905414E9, 0.0, 2022-10-29 15:24:32.905
12.0, 0.0, 2655.065305592958, 2653.7339012087323, 1602.7229063110426, 0.0, 0.03200000151991844, 1.008000047877431, 0.0, 0.0, 0.0, 0.0, 0.0, 1.6670498729061131E9, 0.0, 2022-10-29 15:24:32.906
12.0, 0.0, 2879.1058823885396, 2420.640896570403, 1835.958027147688, 0.0, 0.03200000151991844, 1.008000047877431, 0.0, 0.0, 0.0, 0.0, 0.0, 1.6670498729061131E9, 0.0, 2022-10-29 15:24:32.906
13.0, 0.0, 2929.56274264073, 2466.400442478247, 1642.915611134842, 0.0, 0.03200000151991844, 1.008000047877431, 0.0, 0.0, 0.0, 0.0, 0.0, 1.6670498729198084E9, 0.0, 2022-10-29 15:24:32.919
13.0, 0.0, 3000.3291296022944, 2517.8315466688946, 1639.6095395740122, 0.0, 0.03200000151991844, 1.008000047877431, 0.0, 0.0, 0.0, 0.0, 0.0, 1.6670498729198084E9, 0.0, 2022-10-29 15:24:32.919
14.0, 0.0, 3143.720633803401, 2643.013477985747, 1530.3932411679998, 0.0, 0.03200000151991844, 1.008000047877431, 0.0, 0.0, 0.0, 0.0, 0.0, 1.6670498729353979E9, 0.0, 2022-10-29 15:24:32.935
14.0, 0.0, 2911.136255559046, 2430.2842286061496, 1307.295119161252, 0.0, 0.03200000151991844, 1.008000047877431, 0.0, 0.0, 0.0, 0.0, 0.0, 1.6670498729353979E9, 0.0, 2022-10-29 15:24:32.935
15.0, 0.0, 2932.242380958982, 2474.4019584334455, 1189.6715256548487, 0.0, 0.03200000151991844, 1.008000047877431, 0.0, 0.0, 0.0, 0.0, 0.0, 1.66704987293614E9, 0.0, 2022-10-29 15:24:32.936
15.0, 0.0, 2987.114193108864, 2515.581996845547, 1151.7638997039758, 0.0, 0.03200000151991844, 1.008000047877431, 0.0, 0.0, 0.0, 0.0, 0.0, 1.66704987293614E9, 0.0, 2022-10-29 15:24:32.936
16.0, 0.0, 3148.281441799365, 2648.2063290742226, 1030.7033381382935, 0.0, 0.03200000151991844, 1.008000047877431, 0.0, 0.0, 0.0, 0.0, 0.0, 1.6670498729497864E9, 0.0, 2022-10-29 15:24:32.949
16.0, 0.0, 2916.067313650623, 2442.4781724116765, 805.9521803511307, 0.0, 0.03200000151991844, 1.008000047877431, 0.0, 0.0, 0.0, 0.0, 0.0, 1.6670498729497864E9, 0.0, 2022-10-29 15:24:32.949
17.0, 0.0, 2932.6556399040855, 2473.2108002975583, 707.0093871233985, 0.0, 0.03200000151991844, 1.008000047877431, 0.0, 0.0, 0.0, 0.0, 0.0, 1.667049872965485E9, 0.0, 2022-10-29 15:24:32.965
17.0, 0.0, 2992.520218494814, 2524.398810991086, 661.9959512567148, 0.0, 0.03200000151991844, 1.008000047877431, 0.0, 0.0, 0.0, 0.0, 0.0, 1.667049872965485E9, 0.0, 2022-10-29 15:24:32.965
18.0, 0.0, 3138.4698142656125, 2644.7600112650543, 553.0713650472462, 0.0, 0.03200000151991844, 1.008000047877431, 0.0, 0.0, 0.0, 0.0, 0.0, 1.6670498729661095E9, 0.0, 2022-10-29 15:24:32.966
18.0, 0.0, 2897.8857900160365, 2437.4984956206754, 358.47128070285544, 0.0, 0.03200000151991844, 1.008000047877431, 0.0, 0.0, 0.0, 0.0, 0.0, 1.6670498729661095E9, 0.0, 2022-10-29 15:24:32.966
19.0, 0.0, 2950.6726079406217, 2478.639265083242, 185.65050375042483, 0.0, 0.03200000151991844, 1.008000047877431, 0.0, 0.0, 0.0, 0.0, 0.0, 1.6670498729797225E9, 0.0, 2022-10-29 15:24:32.979
19.0, 0.0, 3031.1664746869355, 2543.9304385096766, 144.3096496402286, 0.0, 0.03200000151991844, 1.008000047877431, 0.0, 0.0, 0.0, 0.0, 0.0, 1.6670498729797225E9, 0.0, 2022-10-29 15:24:32.979
20.0, 0.0, 3156.8271131981164, 2651.1720697390847, 91.95853006048128, 0.0, 0.03200000151991844, 1.008000047877431, 0.0, 0.0, 0.0, 0.0, 0.0, 1.6670498729953887E9, 0.0, 2022-10-29 15:24:32.995
20.0, 0.0, 3397.671060494613, 2438.3081839610822, -127.18277779314667, 0.0, 0.03200000151991844, 1.008000047877431, 0.0, 0.0, 0.0, 0.0, 0.0, 1.6670498729953887E9, 0.0, 2022-10-29 15:24:32.995
21.0, 0.0, 3408.208228619769, 2469.654155439697, -308.8409383408725, 0.0, 0.01600000075995922, 1.008000047877431, 0.0, 0.0, 0.0, 0.0, 0.0, 1.667049872996108E9, 0.0, 2022-10-29 15:24:32.996
21.0, 0.0, 3494.9065893925726, 2532.832285391167, -367.85281974170357, 0.0, 0.01600000075995922, 1.008000047877431, 0.0, 0.0, 0.0, 0.0, 0.0, 1.667049872996108E9, 0.0, 2022-10-29 15:24:32.996
22.0, 0.0, 3626.0200020391494, 2644.0120312739164, -409.36570924986154, 0.0, 0.01600000075995922, 1.008000047877431, 0.0, 0.0, 0.0, 0.0, 0.0, 1.6670498730097308E9, 0.0, 2022-10-29 15:24:33.009
22.0, 0.0, 3400.369398312643, 2438.904698004015, -636.2373903119005, 0.0, 0.01600000075995922, 1.008000047877431, 0.0, 0.0, 0.0, 0.0, 0.0, 1.6670498730097308E9, 0.0, 2022-10-29 15:24:33.009
23.0, 0.0, 3432.1716375858523, 2471.7765486645512, -779.3521419162862, 0.0, 0.01600000075995922, 1.008000047877431, 0.0, 0.0, 0.0, 0.0, 0.0, 1.6670498730253606E9, 0.0, 2022-10-29 15:24:33.025
23.0, 0.0, 3481.7253119987436, 2514.8676759540103, -788.2082250113599, 0.0, 0.01600000075995922, 1.008000047877431, 0.0, 0.0, 0.0, 0.0, 0.0, 1.6670498730253606E9, 0.0, 2022-10-29 15:24:33.025
24.0, 0.0, 3629.223226351198, 2639.6569177755155, -947.7785364207812, 0.0, 0.01600000075995922, 1.008000047877431, 0.0, 0.0, 0.0, 0.0, 0.0, 1.6670498730262277E9, 0.0, 2022-10-29 15:24:33.026
24.0, 0.0, 3407.5518761775456, 2449.995371322613, -1144.368247541599, 0.0, 0.01600000075995922, 1.008000047877431, 0.0, 0.0, 0.0, 0.0, 0.0, 1.6670498730262277E9, 0.0, 2022-10-29 15:24:33.026
25.0, 0.0, 3411.4245425816625, 2468.629422851838, -1265.5073470063508, 0.0, 0.01600000075995922, 1.008000047877431, 0.0, 0.0, 0.0, 0.0, 0.0, 1.6670498730397582E9, 0.0, 2022-10-29 15:24:33.039
25.0, 0.0, 3476.4576629111543, 2504.569861426018, -1254.4914716868661, 0.0, 0.01600000075995922, 1.008000047877431, 0.0, 0.0, 0.0, 0.0, 0.0, 1.6670498730397582E9, 0.0, 2022-10-29 15:24:33.039
26.0, 0.0, 3628.955823504366, 2635.286844677292, -1458.2300015729852, 0.0, 0.01600000075995922, 1.008000047877431, 0.0, 0.0, 0.0, 0.0, 0.0, 1.6670498730554464E9, 0.0, 2022-10-29 15:24:33.055
26.0, 0.0, 3419.248413288966, 2461.4263755371794, -1637.1000667037442, 0.0, 0.01600000075995922, 1.008000047877431, 0.0, 0.0, 0.0, 0.0, 0.0, 1.6670498730554464E9, 0.0, 2022-10-29 15:24:33.055
27.0, 0.0, 3421.5540616116486, 2478.340073086787, -1744.6296702297404, 0.0, 0.01600000075995922, 1.008000047877431, 0.0, 0.0, 0.0, 0.0, 0.0, 1.6670498730561607E9, 0.0, 2022-10-29 15:24:33.056
27.0, 0.0, 3482.189059593249, 2510.155402009841, -1785.267423148267, 0.0, 0.01600000075995922, 1.008000047877431, 0.0, 0.0, 0.0, 0.0, 0.0, 1.6670498730561607E9, 0.0, 2022-10-29 15:24:33.056
28.0, 0.0, 3638.3710216428153, 2639.1894302810542, -1908.8262378843501, 0.0, 0.01600000075995922, 1.008000047877431, 0.0, 0.0, 0.0, 0.0, 0.0, 1.6670498730697405E9, 0.0, 2022-10-29 15:24:33.069
28.0, 0.0, 3437.3663586243056, 2471.5222354675643, -1724.2098164716735, 0.0, 0.01600000075995922, 1.008000047877431, 0.0, 0.0, 0.0, 0.0, 0.0, 1.6670498730697405E9, 0.0, 2022-10-29 15:24:33.069
29.0, 0.0, 3438.1386479651555, 2478.8617891306058, -1667.5148030933924, 0.0, 0.01600000075995922, 1.008000047877431, 0.0, 0.0, 0.0, 0.0, 0.0, 1.6670498730853992E9, 0.0, 2022-10-29 15:24:33.085
29.0, 0.0, 3455.2412104625255, 2492.740557866171, -1725.5655302056111, 0.0, 0.01600000075995922, 1.008000047877431, 0.0, 0.0, 0.0, 0.0, 0.0, 1.6670498730853992E9, 0.0, 2022-10-29 15:24:33.085
30.0, 0.0, 3611.7635034080595, 2624.7515465021133, -1962.1254221028648, 0.0, 0.01600000075995922, 0.9920000471174717, 0.0, 0.0, 0.0, 0.0, 0.0, 1.6670498730862453E9, 0.0, 2022-10-29 15:24:33.086
30.0, 0.0, 3437.312130074948, 2476.326136960648, -2196.9855294702575, 0.0, 0.01600000075995922, 0.9920000471174717, 0.0, 0.0, 0.0, 0.0, 0.0, 1.6670498730862453E9, 0.0, 2022-10-29 15:24:33.086
31.0, 0.0, 3422.790098547004, 2475.286444772966, -2177.599758049939, 0.0, 0.01600000075995922, 0.9920000471174717, 0.0, 0.0, 0.0, 0.0, 0.0, 1.6670498730997913E9, 0.0, 2022-10-29 15:24:33.099
31.0, 0.0, 3451.4414721075445, 2487.721612125635, -2208.1921396874823, 0.0, 0.01600000075995922, 0.9920000471174717, 0.0, 0.0, 0.0, 0.0, 0.0, 1.6670498730997913E9, 0.0, 2022-10-29 15:24:33.099
32.0, 0.0, 3621.6555387908593, 2622.728260626085, -1970.9197968486696, 0.0, 0.01600000075995922, 0.9920000471174717, 0.0, 0.0, 0.0, 0.0, 0.0, 1.667049873115399E9, 0.0, 2022-10-29 15:24:33.115
32.0, 0.0, 3455.790975756012, 2485.8741015475243, -1735.0966652426869, 0.0, 0.01600000075995922, 0.9920000471174717, 0.0, 0.0, 0.0, 0.0, 0.0, 1.667049873115399E9, 0.0, 2022-10-29 15:24:33.115
33.0, 0.0, 3433.4862124202773, 2485.9096305971034, -1659.2271847915836, 0.0, 0.01600000075995922, 0.9920000471174717, 0.0, 0.0, 0.0, 0.0, 0.0, 1.6670498731162395E9, 0.0, 2022-10-29 15:24:33.116
33.0, 0.0, 3451.1048811115324, 2484.624974962324, -1688.8471924406476, 0.0, 0.01600000075995922, 0.9920000471174717, 0.0, 0.0, 0.0, 0.0, 0.0, 1.6670498731162395E9, 0.0, 2022-10-29 15:24:33.116
34.0, 0.0, 3610.828528419137, 2622.114917033352, -1509.1730488194153, 0.0, 0.01600000075995922, 0.9920000471174717, 0.0, 0.0, 0.0, 0.0, 0.0, 1.6670498731297197E9, 0.0, 2022-10-29 15:24:33.129
34.0, 0.0, 3481.1624570554122, 2520.1091457419097, -1336.7487012622878, 0.0, 0.01600000075995922, 0.9920000471174717, 0.0, 0.0, 0.0, 0.0, 0.0, 1.6670498731297197E9, 0.0, 2022-10-29 15:24:33.129
35.0, 0.0, 3445.079902282916, 2499.528476285748, -1575.8891241289675, 0.0, 0.01600000075995922, 0.9920000471174717, 0.0, 0.0, 0.0, 0.0, 0.0, 1.6670498731454866E9, 0.0, 2022-10-29 15:24:33.145
35.0, 0.0, 3438.88101810636, 2468.9865832976066, -1657.9275695569813, 0.0, 0.01600000075995922, 0.9920000471174717, 0.0, 0.0, 0.0, 0.0, 0.0, 1.6670498731454866E9, 0.0, 2022-10-29 15:24:33.145
36.0, 0.0, 3600.0295672970824, 2609.9396727276035, -1525.7202361733653, 0.0, 0.01600000075995922, 0.9920000471174717, 0.0, 0.0, 0.0, 0.0, 0.0, 1.667049873146181E9, 0.0, 2022-10-29 15:24:33.146
36.0, 0.0, 3487.5296367299743, 2516.89844162995, -1382.4820678704418, 0.0, 0.01600000075995922, 0.9920000471174717, 0.0, 0.0, 0.0, 0.0, 0.0, 1.667049873146181E9, 0.0, 2022-10-29 15:24:33.146
37.0, 0.0, 3452.254900347907, 2499.3583108377643, -1543.1332103670575, 0.0, 0.01600000075995922, 0.9920000471174717, 0.0, 0.0, 0.0, 0.0, 0.0, 1.6670498731597302E9, 0.0, 2022-10-29 15:24:33.159
37.0, 0.0, 3442.1328611178324, 2478.5738168340176, -1697.104891542811, 0.0, 0.01600000075995922, 0.9920000471174717, 0.0, 0.0, 0.0, 0.0, 0.0, 1.6670498731597302E9, 0.0, 2022-10-29 15:24:33.159
38.0, 0.0, 3603.857354901731, 2608.9766484890133, -1482.414064636454, 0.0, 0.01600000075995922, 0.9920000471174717, 0.0, 0.0, 0.0, 0.0, 0.0, 1.6670498731754007E9, 0.0, 2022-10-29 15:24:33.175
38.0, 0.0, 3456.7745694443583, 2494.6666063433513, -1266.7751730913296, 0.0, 0.01600000075995922, 0.9920000471174717, 0.0, 0.0, 0.0, 0.0, 0.0, 1.6670498731754007E9, 0.0, 2022-10-29 15:24:33.175
39.0, 0.0, 3432.9514067266136, 2489.2138322079554, -1147.3769970559515, 0.0, 0.01600000075995922, 0.9920000471174717, 0.0, 0.0, 0.0, 0.0, 0.0, 1.6670498731762712E9, 0.0, 2022-10-29 15:24:33.176
39.0, 0.0, 3439.930060043931, 2470.44140438037, -1175.314049724955, 0.0, 0.01600000075995922, 0.9920000471174717, 0.0, 0.0, 0.0, 0.0, 0.0, 1.6670498731762712E9, 0.0, 2022-10-29 15:24:33.176
40.0, 0.0, 3591.818616944365, 2605.3582952818833, -1026.3856236394495, 0.0, 0.01600000075995922, 0.9920000471174717, 0.0, 0.0, 0.0, 0.0, 0.0, 1.6670498731896825E9, 0.0, 2022-10-29 15:24:33.189
40.0, 0.0, 3459.093307416886, 2494.982627889607, -1237.5459849876352, 0.0, 0.01600000075995922, 0.9920000471174717, 0.0, 0.0, 0.0, 0.0, 0.0, 1.6670498731896825E9, 0.0, 2022-10-29 15:24:33.189
41.0, 0.0, 3443.886874197051, 2487.974055372644, -1173.6105252951384, 0.0, 0.01600000075995922, 0.9920000471174717, 0.0, 0.0, 0.0, 0.0, 0.0, 1.667049873205407E9, 0.0, 2022-10-29 15:24:33.205
41.0, 0.0, 3445.0350234834477, 2469.8523701373488, -1164.894688448403, 0.0, 0.01600000075995922, 0.9920000471174717, 0.0, 0.0, 0.0, 0.0, 0.0, 1.667049873205407E9, 0.0, 2022-10-29 15:24:33.205
42.0, 0.0, 3600.9439728362486, 2602.9666292602196, -1035.27910573408, 0.0, 0.01600000075995922, 0.9920000471174717, 0.0, 0.0, 0.0, 0.0, 0.0, 1.6670498732061825E9, 0.0, 2022-10-29 15:24:33.206
42.0, 0.0, 3463.0351619701833, 2509.252216170542, -791.6395832207054, 0.0, 0.01600000075995922, 0.9920000471174717, 0.0, 0.0, 0.0, 0.0, 0.0, 1.6670498732061825E9, 0.0, 2022-10-29 15:24:33.206
43.0, 0.0, 3442.3123763157055, 2499.846367781982, -661.5565130119212, 0.0, 0.01600000075995922, 0.9920000471174717, 0.0, 0.0, 0.0, 0.0, 0.0, 1.6670498732198203E9, 0.0, 2022-10-29 15:24:33.219
43.0, 0.0, 3445.139740682207, 2474.4767564325593, -653.6671940553933, 0.0, 0.01600000075995922, 0.9920000471174717, 0.0, 0.0, 0.0, 0.0, 0.0, 1.6670498732198203E9, 0.0, 2022-10-29 15:24:33.219
44.0, 0.0, 3617.56782813929, 2612.853054793086, -562.1350125898607, 0.0, 0.01600000075995922, 0.9920000471174717, 0.0, 0.0, 0.0, 0.0, 0.0, 1.6670498732354465E9, 0.0, 2022-10-29 15:24:33.235
44.0, 0.0, 3488.1934689721093, 2524.871908335481, -795.3570437766612, 0.0, 0.01600000075995922, 0.9920000471174717, 0.0, 0.0, 0.0, 0.0, 0.0, 1.6670498732354465E9, 0.0, 2022-10-29 15:24:33.235
45.0, 0.0, 3435.7301523936912, 2497.024613265414, -629.9393987865187, 0.0, 0.01600000075995922, 0.9920000471174717, 0.0, 0.0, 0.0, 0.0, 0.0, 1.6670498732362492E9, 0.0, 2022-10-29 15:24:33.236
45.0, 0.0, 3412.0135768246837, 2457.959488278255, -645.9536503967829, 0.0, 0.01600000075995922, 0.9920000471174717, 0.0, 0.0, 0.0, 0.0, 0.0, 1.6670498732362492E9, 0.0, 2022-10-29 15:24:33.236
46.0, 0.0, 3590.2198097133078, 2600.296340691857, -578.4204069469124, 0.0, 0.01600000075995922, 0.9920000471174717, 0.0, 0.0, 0.0, 0.0, 0.0, 1.6670498732497125E9, 0.0, 2022-10-29 15:24:33.249
46.0, 0.0, 3494.0632419525646, 2525.6965562757105, -343.25923763308674, 0.0, 0.01600000075995922, 0.9920000471174717, 0.0, 0.0, 0.0, 0.0, 0.0, 1.6670498732497125E9, 0.0, 2022-10-29 15:24:33.249
47.0, 0.0, 3442.3628649651073, 2489.655140402727, -120.2957520247437, 0.0, 0.01600000075995922, 0.9920000471174717, 0.0, 0.0, 0.0, 0.0, 0.0, 1.6670498732655032E9, 0.0, 2022-10-29 15:24:33.265
47.0, 0.0, 3438.4640192613006, 2459.4722778103314, -155.86220060335472, 0.0, 0.01600000075995922, 0.9920000471174717, 0.0, 0.0, 0.0, 0.0, 0.0, 1.6670498732655032E9, 0.0, 2022-10-29 15:24:33.265
48.0, 0.0, 3594.496385312639, 2601.034970933106, -81.72429383173585, 0.0, 0.01600000075995922, 0.9920000471174717, 0.0, 0.0, 0.0, 0.0, 0.0, 1.667049873266103E9, 0.0, 2022-10-29 15:24:33.266
48.0, 0.0, 3478.3986709881574, 2515.9896459407173, -299.6763134994544, 0.0, 0.01600000075995922, 0.9920000471174717, 0.0, 0.0, 0.0, 0.0, 0.0, 1.667049873266103E9, 0.0, 2022-10-29 15:24:33.266
49.0, 0.0, 3427.461233591661, 2490.6480838409625, -160.5950439972803, 0.0, 0.01600000075995922, 0.9920000471174717, 0.0, 0.0, 0.0, 0.0, 0.0, 1.667049873279768E9, 0.0, 2022-10-29 15:24:33.279
49.0, 0.0, 3429.765011964366, 2468.34145055525, -203.52535558864474, 0.0, 0.01600000075995922, 0.9920000471174717, 0.0, 0.0, 0.0, 0.0, 0.0, 1.667049873279768E9, 0.0, 2022-10-29 15:24:33.279
50.0, 0.0, 3589.6831340696663, 2596.956610031426, -50.10904955631122, 0.0, 0.01600000075995922, 0.9920000471174717, 0.0, 0.0, 0.0, 0.0, 0.0, 1.6670498732955134E9, 0.0, 2022-10-29 15:24:33.295
50.0, 0.0, 3481.2335151545703, 2520.842166133225, 182.16491699172184, 0.0, 0.01600000075995922, 0.9920000471174717, 0.0, 0.0, 0.0, 0.0, 0.0, 1.6670498732955134E9, 0.0, 2022-10-29 15:24:33.295
51.0, 0.0, 3437.5814028717577, 2491.857941476628, 349.29543616157025, 0.0, 0.03200000151991844, 0.9920000471174717, 0.0, 0.0, 0.0, 0.0, 0.0, 1.6670498732961507E9, 0.0, 2022-10-29 15:24:33.296
51.0, 0.0, 3436.528621034231, 2464.1060138554312, 282.60180025175214, 0.0, 0.03200000151991844, 0.9920000471174717, 0.0, 0.0, 0.0, 0.0, 0.0, 1.6670498732961507E9, 0.0, 2022-10-29 15:24:33.296
52.0, 0.0, 3584.501502681058, 2598.4320005639456, 438.75945295160636, 0.0, 0.03200000151991844, 0.9920000471174717, 0.0, 0.0, 0.0, 0.0, 0.0, 1.6670498733097088E9, 0.0, 2022-10-29 15:24:33.309
52.0, 0.0, 3504.082433933858, 2545.7742091878317, 560.7475097062998, 0.0, 0.03200000151991844, 0.9920000471174717, 0.0, 0.0, 0.0, 0.0, 0.0, 1.6670498733097088E9, 0.0, 2022-10-29 15:24:33.309
53.0, 0.0, 3429.351753019262, 2499.448068436701, 437.5626849657856, 0.0, 0.03200000151991844, 0.9920000471174717, 0.0, 0.0, 0.0, 0.0, 0.0, 1.6670498733254433E9, 0.0, 2022-10-29 15:24:33.325
53.0, 0.0, 3398.129198239185, 2435.751962341368, 353.98340075602755, 0.0, 0.03200000151991844, 0.9920000471174717, 0.0, 0.0, 0.0, 0.0, 0.0, 1.6670498733254433E9, 0.0, 2022-10-29 15:24:33.325
54.0, 0.0, 3584.2640190338716, 2589.779742016457, 390.42685587424785, 0.0, 0.03200000151991844, 0.9920000471174717, 0.0, 0.0, 0.0, 0.0, 0.0, 1.667049873326131E9, 0.0, 2022-10-29 15:24:33.326
54.0, 0.0, 3509.907328114845, 2546.251046432182, 620.8271325444803, 0.0, 0.03200000151991844, 0.9920000471174717, 0.0, 0.0, 0.0, 0.0, 0.0, 1.667049873326131E9, 0.0, 2022-10-29 15:24:33.326
55.0, 0.0, 3444.0140307955444, 2496.85444781743, 382.9657554626465, 0.0, 0.03200000151991844, 0.9920000471174717, 0.0, 0.0, 0.0, 0.0, 0.0, 1.6670498733396935E9, 0.0, 2022-10-29 15:24:33.339
55.0, 0.0, 3404.653453711886, 2445.3017968782224, 379.884077899158, 0.0, 0.03200000151991844, 0.9920000471174717, 0.0, 0.0, 0.0, 0.0, 0.0, 1.6670498733396935E9, 0.0, 2022-10-29 15:24:33.339
56.0, 0.0, 3583.3720528944395, 2592.9717466286384, 369.7040702197701, 0.0, 0.03200000151991844, 0.9920000471174717, 0.0, 0.0, 0.0, 0.0, 0.0, 1.6670498733554273E9, 0.0, 2022-10-29 15:24:33.355
56.0, 0.0, 3517.549813674297, 2550.247129534837, 146.82286241045222, 0.0, 0.03200000151991844, 0.9920000471174717, 0.0, 0.0, 0.0, 0.0, 0.0, 1.6670498733554273E9, 0.0, 2022-10-29 15:24:33.355
57.0, 0.0, 3444.887297435198, 2488.2844670689665, 369.9434238169342, 0.0, 0.03200000151991844, 0.9920000471174717, 0.0, 0.0, 0.0, 0.0, 0.0, 1.6670498733561811E9, 0.0, 2022-10-29 15:24:33.356
57.0, 0.0, 3412.176262472756, 2450.3076529689133, 379.44463965436444, 0.0, 0.03200000151991844, 0.9920000471174717, 0.0, 0.0, 0.0, 0.0, 0.0, 1.6670498733561811E9, 0.0, 2022-10-29 15:24:33.356
58.0, 0.0, 3575.561271836981, 2589.3758328212425, 372.8624157323502, 0.0, 0.03200000151991844, 0.9920000471174717, 0.0, 0.0, 0.0, 0.0, 0.0, 1.6670498733698285E9, 0.0, 2022-10-29 15:24:33.369
58.0, 0.0, 3515.27408455126, 2551.475686670281, 129.45663696620613, 0.0, 0.03200000151991844, 0.9920000471174717, 0.0, 0.0, 0.0, 0.0, 0.0, 1.6670498733698285E9, 0.0, 2022-10-29 15:24:33.369
59.0, 0.0, 3439.9263201439753, 2494.801242741756, -114.14174664765596, 0.0, 0.03200000151991844, 0.9920000471174717, 0.0, 0.0, 0.0, 0.0, 0.0, 1.667049873385469E9, 0.0, 2022-10-29 15:24:33.385
59.0, 0.0, 3397.8580554923974, 2432.7918315264396, -111.7014619265683, 0.0, 0.03200000151991844, 0.9920000471174717, 0.0, 0.0, 0.0, 0.0, 0.0, 1.667049873385469E9, 0.0, 2022-10-29 15:24:33.385
60.0, 0.0, 3583.2972548953258, 2585.918295312207, -122.53595209820196, 0.0, 0.03200000151991844, 0.9920000471174717, 0.0, 0.0, 0.0, 0.0, 0.0, 1.667049873386129E9, 0.0, 2022-10-29 15:24:33.386
60.0, 0.0, 3530.336531622801, 2560.748768610414, 109.7380144498311, 0.0, 0.03200000151991844, 0.9920000471174717, 0.0, 0.0, 0.0, 0.0, 0.0, 1.667049873386129E9, 0.0, 2022-10-29 15:24:33.386
61.0, 0.0, 3440.3582785888575, 2496.5346863712184, -99.32239307323471, 0.0, 0.01600000075995922, 0.9920000471174717, 0.0, 0.0, 0.0, 0.0, 0.0, 1.6670498733998096E9, 0.0, 2022-10-29 15:24:33.399
61.0, 0.0, 3402.5385402869433, 2428.7321701245382, -67.41169670131058, 0.0, 0.01600000075995922, 0.9920000471174717, 0.0, 0.0, 0.0, 0.0, 0.0, 1.6670498733998096E9, 0.0, 2022-10-29 15:24:33.399
62.0, 0.0, 3567.1053580371663, 2579.588514637202, -151.64920330327004, 0.0, 0.01600000075995922, 0.9920000471174717, 0.0, 0.0, 0.0, 0.0, 0.0, 1.6670498734154904E9, 0.0, 2022-10-29 15:24:33.415
62.0, 0.0, 3520.1172549938783, 2558.592716285959, -386.9767981651239, 0.0, 0.01600000075995922, 0.9920000471174717, 0.0, 0.0, 0.0, 0.0, 0.0, 1.6670498734154904E9, 0.0, 2022-10-29 15:24:33.415
63.0, 0.0, 3441.930906520225, 2494.8199422415346, -590.0010071597062, 0.0, 0.01600000075995922, 0.9920000471174717, 0.0, 0.0, 0.0, 0.0, 0.0, 1.6670498734161615E9, 0.0, 2022-10-29 15:24:33.416
63.0, 0.0, 3393.8040039404295, 2427.0136860948987, -571.538991028443, 0.0, 0.01600000075995922, 0.9920000471174717, 0.0, 0.0, 0.0, 0.0, 0.0, 1.6670498734161615E9, 0.0, 2022-10-29 15:24:33.416
64.0, 0.0, 3570.749890543986, 2578.0719852051698, -636.4935734588653, 0.0, 0.01600000075995922, 0.9920000471174717, 0.0, 0.0, 0.0, 0.0, 0.0, 1.6670498734298365E9, 0.0, 2022-10-29 15:24:33.429
64.0, 0.0, 3540.1986478059553, 2579.8390879342332, -442.7330966545269, 0.0, 0.01600000075995922, 0.9920000471174717, 0.0, 0.0, 0.0, 0.0, 0.0, 1.6670498734298365E9, 0.0, 2022-10-29 15:24:33.429
65.0, 0.0, 3455.463734509889, 2505.3589803166687, -527.3520730519667, 0.0, 0.01600000075995922, 0.9920000471174717, 0.0, 0.0, 0.0, 0.0, 0.0, 1.6670498734619763E9, 0.0, 2022-10-29 15:24:33.461
65.0, 0.0, 3385.271422191523, 2423.4121624375694, -540.9578290907666, 0.0, 0.01600000075995922, 0.9920000471174717, 0.0, 0.0, 0.0, 0.0, 0.0, 1.6670498734619763E9, 0.0, 2022-10-29 15:24:33.461
66.0, 0.0, 3560.137924419716, 2569.1635435107164, -652.6312417676672, 0.0, 0.01600000075995922, 0.9920000471174717, 0.0, 0.0, 0.0, 0.0, 0.0, 1.667049873462662E9, 0.0, 2022-10-29 15:24:33.462
66.0, 0.0, 3535.918332306668, 2572.2770102238283, -424.88255416601896, 0.0, 0.01600000075995922, 0.9920000471174717, 0.0, 0.0, 0.0, 0.0, 0.0, 1.667049873462662E9, 0.0, 2022-10-29 15:24:33.462
67.0, 0.0, 3439.372814950533, 2494.8423816412687, -561.0747509524226, 0.0, 0.01600000075995922, 0.9920000471174717, 0.0, 0.0, 0.0, 0.0, 0.0, 1.667049873463368E9, 0.0, 2022-10-29 15:24:33.463
67.0, 0.0, 3376.2451736484654, 2414.9225895381533, -558.9673173273914, 0.0, 0.01600000075995922, 0.9920000471174717, 0.0, 0.0, 0.0, 0.0, 0.0, 1.667049873463368E9, 0.0, 2022-10-29 15:24:33.463
68.0, 0.0, 3557.5480437004007, 2568.4417428192683, -648.171411070507, 0.0, 0.01600000075995922, 0.9920000471174717, 0.0, 0.0, 0.0, 0.0, 0.0, 1.6670498734641025E9, 0.0, 2022-10-29 15:24:33.464
68.0, 0.0, 3546.1263892357238, 2574.2067986009642, -426.68331599468365, 0.0, 0.01600000075995922, 0.9920000471174717, 0.0, 0.0, 0.0, 0.0, 0.0, 1.6670498734641025E9, 0.0, 2022-10-29 15:24:33.464
69.0, 0.0, 3451.9332689517178, 2501.338587864302, -551.8128887121566, 0.0, 0.01600000075995922, 0.9920000471174717, 0.0, 0.0, 0.0, 0.0, 0.0, 1.6670498734747896E9, 0.0, 2022-10-29 15:24:33.474
69.0, 0.0, 3390.6456584278494, 2427.3390573910438, -587.4765746896155, 0.0, 0.01600000075995922, 0.9920000471174717, 0.0, 0.0, 0.0, 0.0, 0.0, 1.6670498734747896E9, 0.0, 2022-10-29 15:24:33.474
70.0, 0.0, 3554.7075896840543, 2568.5501999179833, -615.8025769540109, 0.0, 0.01600000075995922, 0.9920000471174717, 0.0, 0.0, 0.0, 0.0, 0.0, 1.6670498734898293E9, 0.0, 2022-10-29 15:24:33.489
70.0, 0.0, 3547.523241869174, 2585.9500844618306, -446.17567456373945, 0.0, 0.01600000075995922, 0.9920000471174717, 0.0, 0.0, 0.0, 0.0, 0.0, 1.6670498734898293E9, 0.0, 2022-10-29 15:24:33.489
71.0, 0.0, 3445.8353620739654, 2502.026729456149, -525.9028618191369, 0.0, 0.01600000075995922, 0.9920000471174717, 0.0, 0.0, 0.0, 0.0, 0.0, 1.667049873505472E9, 0.0, 2022-10-29 15:24:33.505
71.0, 0.0, 3383.1565087665804, 2411.7623740755953, -510.82171524781734, 0.0, 0.01600000075995922, 0.9920000471174717, 0.0, 0.0, 0.0, 0.0, 0.0, 1.667049873505472E9, 0.0, 2022-10-29 15:24:33.505
72.0, 0.0, 3561.317862855736, 2569.6721699046902, -674.7564899055287, 0.0, 0.01600000075995922, 0.9920000471174717, 0.0, 0.0, 0.0, 0.0, 0.0, 1.6670498735061507E9, 0.0, 2022-10-29 15:24:33.506
72.0, 0.0, 3560.151014069561, 2594.0320082660764, -481.54577839467674, 0.0, 0.01600000075995922, 0.9920000471174717, 0.0, 0.0, 0.0, 0.0, 0.0, 1.6670498735061507E9, 0.0, 2022-10-29 15:24:33.506
73.0, 0.0, 3451.6976552545093, 2509.768322364427, -510.10739435628057, 0.0, 0.01600000075995922, 0.9920000471174717, 0.0, 0.0, 0.0, 0.0, 0.0, 1.6670498735197923E9, 0.0, 2022-10-29 15:24:33.519
73.0, 0.0, 3367.002010907978, 2412.757187463809, -490.15315814269707, 0.0, 0.01600000075995922, 0.9920000471174717, 0.0, 0.0, 0.0, 0.0, 0.0, 1.6670498735197923E9, 0.0, 2022-10-29 15:24:33.519
74.0, 0.0, 3550.6049194326624, 2560.5842130123638, -688.5660704919137, 0.0, 0.01600000075995922, 0.9920000471174717, 0.0, 0.0, 0.0, 0.0, 0.0, 1.66704987353556E9, 0.0, 2022-10-29 15:24:33.535
74.0, 0.0, 3587.3513064472936, 2619.4558481648564, -577.3825847092085, 0.0, 0.01600000075995922, 0.9920000471174717, 0.0, 0.0, 0.0, 0.0, 0.0, 1.66704987353556E9, 0.0, 2022-10-29 15:24:33.535
75.0, 0.0, 3473.217039599549, 2526.8895843615755, -409.408718099352, 0.0, 0.01600000075995922, 0.9920000471174717, 0.0, 0.0, 0.0, 0.0, 0.0, 1.6670498735361812E9, 0.0, 2022-10-29 15:24:33.536
75.0, 0.0, 3352.2929843822494, 2393.870692687575, -477.34026089450344, 0.0, 0.01600000075995922, 0.9920000471174717, 0.0, 0.0, 0.0, 0.0, 0.0, 1.6670498735361812E9, 0.0, 2022-10-29 15:24:33.536
76.0, 0.0, 3539.744249961339, 2543.8481607106514, -689.3626691824757, 0.0, 0.01600000075995922, 0.9920000471174717, 0.0, 0.0, 0.0, 0.0, 0.0, 1.6670498735497303E9, 0.0, 2022-10-29 15:24:33.549
76.0, 0.0, 3565.0016643120907, 2601.597825876437, -507.9962208312936, 0.0, 0.01600000075995922, 0.9920000471174717, 0.0, 0.0, 0.0, 0.0, 0.0, 1.6670498735497303E9, 0.0, 2022-10-29 15:24:33.549
77.0, 0.0, 3459.816978058312, 2511.05858784914, -473.52556293969974, 0.0, 0.01600000075995922, 0.9920000471174717, 0.0, 0.0, 0.0, 0.0, 0.0, 1.667049873565415E9, 0.0, 2022-10-29 15:24:33.565
77.0, 0.0, 3361.257524576038, 2394.6111928788014, -478.3275944828056, 0.0, 0.01600000075995922, 0.9920000471174717, 0.0, 0.0, 0.0, 0.0, 0.0, 1.667049873565415E9, 0.0, 2022-10-29 15:24:33.565
78.0, 0.0, 3530.15514647495, 2544.985090297181, -693.3830616348423, 0.0, 0.01600000075995922, 0.9920000471174717, 0.0, 0.0, 0.0, 0.0, 0.0, 1.6670498735661545E9, 0.0, 2022-10-29 15:24:33.566
78.0, 0.0, 3557.061856706161, 2596.4554634373635, -482.4302647341974, 0.0, 0.01600000075995922, 0.9920000471174717, 0.0, 0.0, 0.0, 0.0, 0.0, 1.6670498735661545E9, 0.0, 2022-10-29 15:24:33.566
79.0, 0.0, 3453.6498830313794, 2504.898972622119, -502.13205770077184, 0.0, 0.01600000075995922, 0.9920000471174717, 0.0, 0.0, 0.0, 0.0, 0.0, 1.6670498735798063E9, 0.0, 2022-10-29 15:24:33.579
79.0, 0.0, 3350.0976631082594, 2392.7300232010894, -503.1418306888081, 0.0, 0.01600000075995922, 0.9920000471174717, 0.0, 0.0, 0.0, 0.0, 0.0, 1.6670498735798063E9, 0.0, 2022-10-29 15:24:33.579
80.0, 0.0, 3531.5875281579792, 2550.2882684343494, -690.323823471088, 0.0, 0.01600000075995922, 0.9920000471174717, 0.0, 0.0, 0.0, 0.0, 0.0, 1.6670498735953608E9, 0.0, 2022-10-29 15:24:33.595
80.0, 0.0, 3582.2725223074667, 2612.5819120462984, -565.0184754556976, 0.0, 0.01600000075995922, 0.9920000471174717, 0.0, 0.0, 0.0, 0.0, 0.0, 1.6670498735953608E9, 0.0, 2022-10-29 15:24:33.595
81.0, 0.0, 3463.7326533119194, 2519.5668602483347, -423.2276484356262, 0.0, 0.03200000151991844, 0.9920000471174717, 0.0, 0.0, 0.0, 0.0, 0.0, 1.6670498735961175E9, 0.0, 2022-10-29 15:24:33.596
81.0, 0.0, 3352.67445417773, 2390.8451136234216, -508.02240013098344, 0.0, 0.03200000151991844, 0.9920000471174717, 0.0, 0.0, 0.0, 0.0, 0.0, 1.6670498735961175E9, 0.0, 2022-10-29 15:24:33.596
82.0, 0.0, 3526.7742769150063, 2535.0930549143814, -671.399929695297, 0.0, 0.03200000151991844, 0.9920000471174717, 0.0, 0.0, 0.0, 0.0, 0.0, 1.6670498736097867E9, 0.0, 2022-10-29 15:24:33.609
82.0, 0.0, 3572.331868225243, 2605.098372234963, -509.83625160949305, 0.0, 0.03200000151991844, 0.9920000471174717, 0.0, 0.0, 0.0, 0.0, 0.0, 1.6670498736097867E9, 0.0, 2022-10-29 15:24:33.609
83.0, 0.0, 3452.6700292429887, 2506.548268502578, -467.73993770824745, 0.0, 0.03200000151991844, 0.9920000471174717, 0.0, 0.0, 0.0, 0.0, 0.0, 1.667049873625357E9, 0.0, 2022-10-29 15:24:33.625
83.0, 0.0, 3353.684227165766, 2386.787322171498, -446.08030711486936, 0.0, 0.03200000151991844, 0.9920000471174717, 0.0, 0.0, 0.0, 0.0, 0.0, 1.667049873625357E9, 0.0, 2022-10-29 15:24:33.625
84.0, 0.0, 3517.7760776216164, 2529.9506924753077, -239.04505541780964, 0.0, 0.03200000151991844, 0.9920000471174717, 0.0, 0.0, 0.0, 0.0, 0.0, 1.6670498736262486E9, 0.0, 2022-10-29 15:24:33.626
84.0, 0.0, 3598.114738519769, 2627.373216371052, -67.49958435026929, 0.0, 0.03200000151991844, 0.9920000471174717, 0.0, 0.0, 0.0, 0.0, 0.0, 1.6670498736262486E9, 0.0, 2022-10-29 15:24:33.626
85.0, 0.0, 3491.826781779062, 2527.136417758651, 59.78417074168101, 0.0, 0.03200000151991844, 0.9920000471174717, 0.0, 0.0, 0.0, 0.0, 0.0, 1.6670498736397307E9, 0.0, 2022-10-29 15:24:33.639
85.0, 0.0, 3344.809444570914, 2379.2439439608715, 50.81589064793661, 0.0, 0.03200000151991844, 0.9920000471174717, 0.0, 0.0, 0.0, 0.0, 0.0, 1.6670498736397307E9, 0.0, 2022-10-29 15:24:33.639
86.0, 0.0, 3517.394607826136, 2528.6379875908606, 243.87139631062746, 0.0, 0.03200000151991844, 0.9920000471174717, 0.0, 0.0, 0.0, 0.0, 0.0, 1.6670498736553602E9, 0.0, 2022-10-29 15:24:33.655
86.0, 0.0, 3609.1586630889215, 2637.650461449288, 415.7833775738254, 0.0, 0.03200000151991844, 0.9920000471174717, 0.0, 0.0, 0.0, 0.0, 0.0, 1.6670498736553602E9, 0.0, 2022-10-29 15:24:33.655
87.0, 0.0, 3490.899286590051, 2528.2658675452694, 547.8616844089702, 0.0, 0.03200000151991844, 0.9920000471174717, 0.0, 0.0, 0.0, 0.0, 0.0, 1.6670498736561165E9, 0.0, 2022-10-29 15:24:33.656
87.0, 0.0, 3357.532584220171, 2381.9104926292785, 542.2406147755682, 0.0, 0.03200000151991844, 0.9920000471174717, 0.0, 0.0, 0.0, 0.0, 0.0, 1.6670498736561165E9, 0.0, 2022-10-29 15:24:33.656
88.0, 0.0, 3508.9349541263655, 2526.969992210623, 731.0288945888169, 0.0, 0.03200000151991844, 0.9920000471174717, 0.0, 0.0, 0.0, 0.0, 0.0, 1.6670498736697545E9, 0.0, 2022-10-29 15:24:33.669
88.0, 0.0, 3611.6643960592337, 2646.394347545691, 921.6665549301542, 0.0, 0.03200000151991844, 0.9920000471174717, 0.0, 0.0, 0.0, 0.0, 0.0, 1.6670498736697545E9, 0.0, 2022-10-29 15:24:33.669
89.0, 0.0, 3482.49199148966, 2533.314732485451, 1019.4724185713567, 0.0, 0.03200000151991844, 0.9920000471174717, 0.0, 0.0, 0.0, 0.0, 0.0, 1.6670498736854963E9, 0.0, 2022-10-29 15:24:33.685
89.0, 0.0, 3340.7890521185473, 2384.7677761954255, 1006.0648772302084, 0.0, 0.03200000151991844, 0.9920000471174717, 0.0, 0.0, 0.0, 0.0, 0.0, 1.6670498736854963E9, 0.0, 2022-10-29 15:24:33.685
90.0, 0.0, 3526.4975243182853, 2530.2311849719845, 1250.8581588799134, 0.0, 0.03200000151991844, 0.9920000471174717, 0.0, 0.0, 0.0, 0.0, 0.0, 1.6670498736861696E9, 0.0, 2022-10-29 15:24:33.686
90.0, 0.0, 3628.800617656205, 2645.87450145185, 1401.5761270942166, 0.0, 0.03200000151991844, 0.9920000471174717, 0.0, 0.0, 0.0, 0.0, 0.0, 1.6670498736861696E9, 0.0, 2022-10-29 15:24:33.686
91.0, 0.0, 3489.003157312516, 2534.279626674019, 1523.612802548334, 0.0, 0.01600000075995922, 0.9920000471174717, 0.0, 0.0, 0.0, 0.0, 0.0, 1.6670498736997888E9, 0.0, 2022-10-29 15:24:33.699
91.0, 0.0, 3359.597008995712, 2393.9118315870874, 1505.1900553666055, 0.0, 0.01600000075995922, 0.9920000471174717, 0.0, 0.0, 0.0, 0.0, 0.0, 1.6670498736997888E9, 0.0, 2022-10-29 15:24:33.699
92.0, 0.0, 3515.3638421501964, 2520.1222353917547, 1745.45431816997, 0.0, 0.01600000075995922, 0.9920000471174717, 0.0, 0.0, 0.0, 0.0, 0.0, 1.667049873715511E9, 0.0, 2022-10-29 15:24:33.715
92.0, 0.0, 3631.1343152285554, 2650.792469893582, 1803.684560480062, 0.0, 0.01600000075995922, 0.9920000471174717, 0.0, 0.0, 0.0, 0.0, 0.0, 1.667049873715511E9, 0.0, 2022-10-29 15:24:33.715
93.0, 0.0, 3489.451945307199, 2538.1092842286453, 1587.0826446963474, 0.0, 0.01600000075995922, 0.9920000471174717, 0.0, 0.0, 0.0, 0.0, 0.0, 1.6670498737164009E9, 0.0, 2022-10-29 15:24:33.716
93.0, 0.0, 3330.7773399371654, 2362.1937400628813, 1577.740374607034, 0.0, 0.01600000075995922, 0.9920000471174717, 0.0, 0.0, 0.0, 0.0, 0.0, 1.6670498737164009E9, 0.0, 2022-10-29 15:24:33.716
94.0, 0.0, 3506.866789450869, 2507.429014942143, 1698.0361266317777, 0.0, 0.01600000075995922, 0.9920000471174717, 0.0, 0.0, 0.0, 0.0, 0.0, 1.667049873729734E9, 0.0, 2022-10-29 15:24:33.729
94.0, 0.0, 3643.345088583883, 2662.7676295517012, 1739.5303166401573, 0.0, 0.01600000075995922, 0.9920000471174717, 0.0, 0.0, 0.0, 0.0, 0.0, 1.667049873729734E9, 0.0, 2022-10-29 15:24:33.729
95.0, 0.0, 3497.1037806165405, 2540.5402191998437, 1635.2899551251903, 0.0, 0.01600000075995922, 0.9920000471174717, 0.0, 0.0, 0.0, 0.0, 0.0, 1.6670498737455204E9, 0.0, 2022-10-29 15:24:33.745
95.0, 0.0, 3324.8907374069095, 2351.0450982949696, 1585.2762730177492, 0.0, 0.01600000075995922, 0.9920000471174717, 0.0, 0.0, 0.0, 0.0, 0.0, 1.6670498737455204E9, 0.0, 2022-10-29 15:24:33.745
96.0, 0.0, 3488.8778706640005, 2494.4590418958105, 1685.043714185711, 0.0, 0.01600000075995922, 0.9920000471174717, 0.0, 0.0, 0.0, 0.0, 0.0, 1.6670498737462735E9, 0.0, 2022-10-29 15:24:33.746
96.0, 0.0, 3638.5168777410872, 2665.8642667150125, 1723.867615625728, 0.0, 0.01600000075995922, 0.9920000471174717, 0.0, 0.0, 0.0, 0.0, 0.0, 1.6670498737462735E9, 0.0, 2022-10-29 15:24:33.746
97.0, 0.0, 3504.347966830712, 2558.9592264816165, 1643.9814826222137, 0.0, 0.01600000075995922, 0.9920000471174717, 0.0, 0.0, 0.0, 0.0, 0.0, 1.6670498737597997E9, 0.0, 2022-10-29 15:24:33.759
97.0, 0.0, 3334.6743156909943, 2362.571469958406, 1601.9412672203034, 0.0, 0.01600000075995922, 0.9920000471174717, 0.0, 0.0, 0.0, 0.0, 0.0, 1.6670498737597997E9, 0.0, 2022-10-29 15:24:33.759
98.0, 0.0, 3499.9591942327097, 2504.115463581402, 1692.5870923963375, 0.0, 0.01600000075995922, 0.9920000471174717, 0.0, 0.0, 0.0, 0.0, 0.0, 1.6670498737756064E9, 0.0, 2022-10-29 15:24:33.775
98.0, 0.0, 3638.8123298375867, 2663.5829277420416, 1839.191170659382, 0.0, 0.01600000075995922, 0.9920000471174717, 0.0, 0.0, 0.0, 0.0, 0.0, 1.6670498737756064E9, 0.0, 2022-10-29 15:24:33.775
99.0, 0.0, 3493.191845262889, 2534.649876769632, 2047.174486995209, 0.0, 0.01600000075995922, 0.9920000471174717, 0.0, 0.0, 0.0, 0.0, 0.0, 1.667049873776284E9, 0.0, 2022-10-29 15:24:33.776
99.0, 0.0, 3326.5400332873687, 2357.806837414857, 2078.2624053768814, 0.0, 0.01600000075995922, 0.9920000471174717, 0.0, 0.0, 0.0, 0.0, 0.0, 1.667049873776284E9, 0.0, 2022-10-29 15:24:33.776
100.0, 0.0, 3486.95182218682, 2495.1808425872587, 2171.892670717556, 0.0, 0.01600000075995922, 0.9920000471174717, 0.0, 0.0, 0.0, 0.0, 0.0, 1.6670498737905052E9, 0.0, 2022-10-29 15:24:33.790
100.0, 0.0, 3636.1981397685595, 2658.4592648027465, 2284.99472517753, 0.0, 0.01600000075995922, 0.9920000471174717, 0.0, 0.0, 0.0, 0.0, 0.0, 1.6670498737905052E9, 0.0, 2022-10-29 15:24:33.790
0.0, 0.0, -1422.8636376420036, -1391.7738493103534, 2061.8124554217793, 0.0, 0.01600000075995922, 0.9920000471174717, 0.0, 0.0, 0.0, 0.0, 0.0, 1.6670498737912076E9, 0.0, 2022-10-29 15:24:33.791
1.0, 0.0, -1585.8054688614793, -1572.4652457195334, 2095.177972876467, 0.0, 0.01600000075995922, 0.9920000471174717, 0.0, 0.0, 0.0, 0.0, 0.0, 1.6670498738047302E9, 0.0, 2022-10-29 15:24:33.804
1.0, 0.0, -1420.109201324638, -1435.0575814475305, 2153.234309838619, 0.0, 0.01600000075995922, 0.9920000471174717, 0.0, 0.0, 0.0, 0.0, 0.0, 1.6670498738047302E9, 0.0, 2022-10-29 15:24:33.804
2.0, 0.0, -1272.7964120199904, -1260.7913331622258, 2229.9733170294203, 0.0, 0.01600000075995922, 0.9920000471174717, 0.0, 0.0, 0.0, 0.0, 0.0, 1.667049873820596E9, 0.0, 2022-10-29 15:24:33.820
2.0, 0.0, -1425.066438715905, -1384.1369736008346, 2099.1721860291436, 0.0, 0.01600000075995922, 0.9920000471174717, 0.0, 0.0, 0.0, 0.0, 0.0, 1.667049873820596E9, 0.0, 2022-10-29 15:24:33.820
3.0, 0.0, -1593.793895166833, -1581.3811672138982, 2110.734086742159, 0.0, 0.01600000075995922, 0.9920000471174717, 0.0, 0.0, 0.0, 0.0, 0.0, 1.6670498738212063E9, 0.0, 2022-10-29 15:24:33.821
3.0, 0.0, -1430.7005979991518, -1438.6740647046827, 2141.2909393301234, 0.0, 0.01600000075995922, 0.9920000471174717, 0.0, 0.0, 0.0, 0.0, 0.0, 1.6670498738212063E9, 0.0, 2022-10-29 15:24:33.821
4.0, 0.0, -1238.2509561292827, -1234.1632454777136, 2156.5085922498256, 0.0, 0.01600000075995922, 0.9920000471174717, 0.0, 0.0, 0.0, 0.0, 0.0, 1.6670498738347752E9, 0.0, 2022-10-29 15:24:33.834
4.0, 0.0, -1376.0587896965444, -1353.017266069539, 2161.000212096609, 0.0, 0.01600000075995922, 0.9920000471174717, 0.0, 0.0, 0.0, 0.0, 0.0, 1.6670498738347752E9, 0.0, 2022-10-29 15:24:33.834
5.0, 0.0, -1589.6613057157956, -1579.8328486322425, 2143.9911470981315, 0.0, 0.01600000075995922, 0.9920000471174717, 0.0, 0.0, 0.0, 0.0, 0.0, 1.6670498738504157E9, 0.0, 2022-10-29 15:24:33.850
5.0, 0.0, -1426.8559808447026, -1436.3216676325537, 2147.448684607167, 0.0, 0.01600000075995922, 0.9920000471174717, 0.0, 0.0, 0.0, 0.0, 0.0, 1.6670498738504157E9, 0.0, 2022-10-29 15:24:33.850
6.0, 0.0, -1243.9617833616212, -1227.4613447571173, 2151.353140160907, 0.0, 0.01600000075995922, 0.9920000471174717, 0.0, 0.0, 0.0, 0.0, 0.0, 1.6670498738511896E9, 0.0, 2022-10-29 15:24:33.851
6.0, 0.0, -1396.3776661558077, -1357.8305173125118, 2159.8651524600573, 0.0, 0.01600000075995922, 0.9920000471174717, 0.0, 0.0, 0.0, 0.0, 0.0, 1.6670498738511896E9, 0.0, 2022-10-29 15:24:33.851
7.0, 0.0, -1600.0582275926135, -1579.6495935344137, 2119.2161798416637, 0.0, 0.01600000075995922, 0.9920000471174717, 0.0, 0.0, 0.0, 0.0, 0.0, 1.6670498738647683E9, 0.0, 2022-10-29 15:24:33.864
7.0, 0.0, -1440.4505171836354, -1447.3244533021934, 2169.86751489155, 0.0, 0.01600000075995922, 0.9920000471174717, 0.0, 0.0, 0.0, 0.0, 0.0, 1.6670498738647683E9, 0.0, 2022-10-29 15:24:33.864
8.0, 0.0, -1245.5288014430553, -1230.1877318248153, 2233.5991500364617, 0.0, 0.01600000075995922, 0.9920000471174717, 0.0, 0.0, 0.0, 0.0, 0.0, 1.667049873880485E9, 0.0, 2022-10-29 15:24:33.880
8.0, 0.0, -1396.482383354567, -1372.4423064393923, 2099.129177179653, 0.0, 0.01600000075995922, 0.9920000471174717, 0.0, 0.0, 0.0, 0.0, 0.0, 1.667049873880485E9, 0.0, 2022-10-29 15:24:33.880
9.0, 0.0, -1583.8569809845649, -1564.9630064084195, 2071.984983301256, 0.0, 0.01600000075995922, 0.9920000471174717, 0.0, 0.0, 0.0, 0.0, 0.0, 1.6670498738811464E9, 0.0, 2022-10-29 15:24:33.881
9.0, 0.0, -1423.3068157867528, -1432.7313636750914, 2198.7694617491215, 0.0, 0.01600000075995922, 0.9920000471174717, 0.0, 0.0, 0.0, 0.0, 0.0, 1.6670498738811464E9, 0.0, 2022-10-29 15:24:33.881
