%OpenBCI Raw EEG Data
%Number of channels = 4
%Sample Rate = 200 Hz
%Board = OpenBCI_GUI$BoardGanglionBLE
Sample Index, EXG Channel 0, EXG Channel 1, EXG Channel 2, EXG Channel 3, Accel Channel 0, Accel Channel 1, Accel Channel 2, Other, Other, Other, Other, Other, Timestamp, Other, Timestamp (Formatted)
0.0, 633.4754741946235, 916.0510951466858, 1171.4843921703286, -250.69671372976154, 0.0, 0.0, 0.0, 0.0, 0.0, 0.0, 0.0, 0.0, 1.6670468465680413E9, 0.0, 2022-10-29 14:34:06.568
1.0, 841.1147197345272, 869.1583595522679, 978.7168588042259, -144.09460539277643, 0.0, 0.0, 0.0, 0.0, 0.0, 0.0, 0.0, 0.0, 1.6670468465975835E9, 0.0, 2022-10-29 14:34:06.597
1.0, 754.1657856646925, 695.907494104933, 768.4185443958268, -27.14980372833088, 0.0, 0.0, 0.0, 0.0, 0.0, 0.0, 0.0, 0.0, 1.6670468465975835E9, 0.0, 2022-10-29 14:34:06.597
2.0, 862.3966204323806, 571.8587524746545, 541.1747432881966, 6.657021921128035, 0.0, 0.0, 0.0, 0.0, 0.0, 0.0, 0.0, 0.0, 1.6670468465983772E9, 0.0, 2022-10-29 14:34:06.598
2.0, 1036.4104254706763, 813.0673400168307, 567.9075481714681, 147.90556344762444, 0.0, 0.0, 0.0, 0.0, 0.0, 0.0, 0.0, 0.0, 1.6670468465983772E9, 0.0, 2022-10-29 14:34:06.598
3.0, 1232.4073624485172, 777.5887790871784, 357.7494800114073, 252.6377218067646, 0.0, 0.0, 0.0, 0.0, 0.0, 0.0, 0.0, 0.0, 1.6670468465991015E9, 0.0, 2022-10-29 14:34:06.599
3.0, 1318.8682395741343, 788.2381442110054, 394.24903362896293, 83.54936501011252, 0.0, 0.0, 0.0, 0.0, 0.0, 0.0, 0.0, 0.0, 1.6670468465991015E9, 0.0, 2022-10-29 14:34:06.599
4.0, 1352.0430221310817, 575.9389833263122, 534.7963439137675, 13.100869544781744, 0.0, 0.0, 0.0, 0.0, 0.0, 0.0, 0.0, 0.0, 1.66704684661239E9, 0.0, 2022-10-29 14:34:06.612
4.0, 1512.2603362328373, 800.4115185667761, 542.6725732204504, 126.36373970285058, 0.0, 0.0, 0.0, 0.0, 0.0, 0.0, 0.0, 0.0, 1.66704684661239E9, 0.0, 2022-10-29 14:34:06.612
5.0, 1722.9363805367611, 778.3367590783164, 335.03145773056895, 252.4582066088915, 0.0, 0.0, 0.0, 0.0, 0.0, 0.0, 0.0, 0.0, 1.6670468466268525E9, 0.0, 2022-10-29 14:34:06.626
5.0, 1963.4362570373341, 930.111249030102, 141.00544802937657, 255.033127728384, 0.0, 0.0, 0.0, 0.0, 0.0, 0.0, 0.0, 0.0, 1.6670468466268525E9, 0.0, 2022-10-29 14:34:06.626
6.0, 1884.2139562759548, 1127.157227945514, 139.89843764249235, 151.9839243493043, 0.0, 0.0, 0.0, 0.0, 0.0, 0.0, 0.0, 0.0, 1.6670468466273677E9, 0.0, 2022-10-29 14:34:06.627
6.0, 2022.1826055413112, 1313.3743265392259, 57.117622073274106, 125.88877240847796, 0.0, 0.0, 0.0, 0.0, 0.0, 0.0, 0.0, 0.0, 1.6670468466273677E9, 0.0, 2022-10-29 14:34:06.627
7.0, 2162.2268992820755, 1226.1766891223378, 267.50195418065414, 213.27527477312833, 0.0, 0.0, 0.0, 0.0, 0.0, 0.0, 0.0, 0.0, 1.6670468466410372E9, 0.0, 2022-10-29 14:34:06.641
7.0, 2044.5733865760267, 1011.2446386688389, 236.49444364802912, 335.97578246938065, 0.0, 0.0, 0.0, 0.0, 0.0, 0.0, 0.0, 0.0, 1.6670468466410372E9, 0.0, 2022-10-29 14:34:06.641
8.0, 1961.1249988647178, 1183.7867930745706, 254.59368948359042, 210.65921475412324, 0.0, 0.0, 0.0, 0.0, 0.0, 0.0, 0.0, 0.0, 1.6670468466566556E9, 0.0, 2022-10-29 14:34:06.656
8.0, 2022.1190272420645, 1337.9379894481972, 49.31993066566065, 139.142977851443, 0.0, 0.0, 0.0, 0.0, 0.0, 0.0, 0.0, 0.0, 1.6670468466566556E9, 0.0, 2022-10-29 14:34:06.656
9.0, 2138.9161028582603, 1228.6749422927387, 240.78410889720544, 218.57097311038524, 0.0, 0.0, 0.0, 0.0, 0.0, 0.0, 0.0, 0.0, 1.6670468466575131E9, 0.0, 2022-10-29 14:34:06.657
9.0, 2144.239850445185, 1140.1178512419574, 379.12487820815295, -19.900007664225996, 0.0, 0.0, 0.0, 0.0, 0.0, 0.0, 0.0, 0.0, 1.6670468466575131E9, 0.0, 2022-10-29 14:34:06.657
10.0, 2018.915802930016, 1253.9435763433576, 361.15839882101864, -185.48407820239663, 0.0, 0.0, 0.49600002355873585, 0.0, 0.0, 0.0, 0.0, 0.0, 1.6670468466710272E9, 0.0, 2022-10-29 14:34:06.671
10.0, 2042.43603375135, 1349.8607905069366, 549.8737505851313, -336.00570166902617, 0.0, 0.0, 0.49600002355873585, 0.0, 0.0, 0.0, 0.0, 0.0, 1.6670468466710272E9, 0.0, 2022-10-29 14:34:06.671
11.0, 2160.0409277579747, 1221.1016448824666, 739.0565898437053, -264.2968599186279, 0.0, 0.01600000075995922, 0.49600002355873585, 0.0, 0.0, 0.0, 0.0, 0.0, 1.667046846686684E9, 0.0, 2022-10-29 14:34:06.686
11.0, 2248.0015047658235, 1218.81656600954, 515.6835851902142, -396.12085355678573, 0.0, 0.01600000075995922, 0.49600002355873585, 0.0, 0.0, 0.0, 0.0, 0.0, 1.667046846686684E9, 0.0, 2022-10-29 14:34:06.686
12.0, 2112.998596165329, 1341.3824373073876, 492.10351596958935, -586.313465803396, 0.01600000075995922, 0.01600000075995922, 0.49600002355873585, 0.0, 0.0, 0.0, 0.0, 0.0, 1.6670468466874473E9, 0.0, 2022-10-29 14:34:06.687
12.0, 2110.5470917443745, 1414.3404056429863, 609.0240082843229, -762.0943735707551, 0.01600000075995922, 0.01600000075995922, 0.49600002355873585, 0.0, 0.0, 0.0, 0.0, 0.0, 1.6670468466874473E9, 0.0, 2022-10-29 14:34:06.687
13.0, 2163.0253679226153, 1234.509186223615, 748.8252085279673, -750.0406760135666, 0.01600000075995922, 0.01600000075995922, 0.49600002355873585, 0.0, 0.0, 0.0, 0.0, 0.0, 1.6670468467009635E9, 0.0, 2022-10-29 14:34:06.700
13.0, 2379.634763506241, 1356.0391052337363, 661.2778904652223, -740.8049930729903, 0.01600000075995922, 0.01600000075995922, 0.49600002355873585, 0.0, 0.0, 0.0, 0.0, 0.0, 1.6670468467009635E9, 0.0, 2022-10-29 14:34:06.700
14.0, 2240.2486921576783, 1481.1630681012757, 665.7751201619394, -981.9687018156983, 0.01600000075995922, 0.01600000075995922, 0.49600002355873585, 0.0, 0.0, 0.0, 0.0, 0.0, 1.6670468467167614E9, 0.0, 2022-10-29 14:34:06.716
14.0, 2214.935179307591, 1499.2941030864604, 656.0382906273007, -1206.3309100074694, 0.01600000075995922, 0.01600000075995922, 0.49600002355873585, 0.0, 0.0, 0.0, 0.0, 0.0, 1.6670468467167614E9, 0.0, 2022-10-29 14:34:06.716
15.0, 2230.5717010223307, 1280.4669468291104, 767.4125113077462, -1136.0544499401003, 0.01600000075995922, 0.01600000075995922, 0.49600002355873585, 0.0, 0.0, 0.0, 0.0, 0.0, 1.6670468467174737E9, 0.0, 2022-10-29 14:34:06.717
15.0, 2034.5074458452873, 1498.972471690271, 799.5625612768345, -1099.9887247174047, 0.01600000075995922, 0.01600000075995922, 0.49600002355873585, 0.0, 0.0, 0.0, 0.0, 0.0, 1.6670468467174737E9, 0.0, 2022-10-29 14:34:06.717
16.0, 1854.8875307734124, 1568.3494858182967, 793.5899410475977, -1320.2089937082492, 0.01600000075995922, 0.01600000075995922, 0.49600002355873585, 0.0, 0.0, 0.0, 0.0, 0.0, 1.6670468467311623E9, 0.0, 2022-10-29 14:34:06.731
16.0, 1797.6951107010245, 1573.2150956606492, 712.297605660744, -1155.4252617605962, 0.01600000075995922, 0.01600000075995922, 0.49600002355873585, 0.0, 0.0, 0.0, 0.0, 0.0, 1.6670468467311623E9, 0.0, 2022-10-29 14:34:06.731
17.0, 1728.2769576734863, 1765.356195784174, 762.7750353626907, -1139.6728031472303, 0.01600000075995922, 0.01600000075995922, 0.49600002355873585, 0.0, 0.0, 0.0, 0.0, 0.0, 1.66704684674674E9, 0.0, 2022-10-29 14:34:06.746
17.0, 1642.8576426855288, 1594.046338413842, 919.0261855614372, -1009.410217740573, 0.01600000075995922, 0.01600000075995922, 0.49600002355873585, 0.0, 0.0, 0.0, 0.0, 0.0, 1.66704684674674E9, 0.0, 2022-10-29 14:34:06.746
18.0, 1461.1957422378473, 1662.8922867481597, 919.3796061072499, -778.6939195240848, 0.01600000075995922, 0.01600000075995922, 0.49600002355873585, 0.0, 0.0, 0.0, 0.0, 0.0, 1.6670468467474804E9, 0.0, 2022-10-29 14:34:06.747
18.0, 1330.016881342046, 1574.0191741511226, 715.3661935743876, -634.9433849272318, 0.01600000075995922, 0.01600000075995922, 0.49600002355873585, 0.0, 0.0, 0.0, 0.0, 0.0, 1.6670468467474804E9, 0.0, 2022-10-29 14:34:06.747
19.0, 1246.9032146767713, 1769.9562727296725, 773.5440772850998, -588.7032618750818, 0.01600000075995922, 0.01600000075995922, 0.49600002355873585, 0.0, 0.0, 0.0, 0.0, 0.0, 1.6670468467610304E9, 0.0, 2022-10-29 14:34:06.761
19.0, 1292.8871545819566, 1733.4735486619174, 594.948894801084, -416.7071328628808, 0.01600000075995922, 0.01600000075995922, 0.49600002355873585, 0.0, 0.0, 0.0, 0.0, 0.0, 1.6670468467610304E9, 0.0, 2022-10-29 14:34:06.761
20.0, 1054.6405678046867, 1766.4089776217006, 585.5692257122137, -177.59849914582446, 0.01600000075995922, 0.01600000075995922, 0.7520000357180834, 0.0, 0.0, 0.0, 0.0, 0.0, 1.667046846776608E9, 0.0, 2022-10-29 14:34:06.776
20.0, 812.5961126224138, 1551.5236759176478, 692.7921574418433, -128.16450153151527, 0.01600000075995922, 0.01600000075995922, 0.7520000357180834, 0.0, 0.0, 0.0, 0.0, 0.0, 1.667046846776608E9, 0.0, 2022-10-29 14:34:06.776
21.0, 766.6720111165196, 1786.2136178370565, 775.9862319561653, -34.50992684112862, 0.01600000075995922, 0.01600000075995922, 0.7520000357180834, 0.0, 0.0, 0.0, 0.0, 0.0, 1.6670468467774792E9, 0.0, 2022-10-29 14:34:06.777
21.0, 1000.5597444954328, 1936.8362186024897, 799.990779821761, -256.2448553140275, 0.01600000075995922, 0.01600000075995922, 0.7520000357180834, 0.0, 0.0, 0.0, 0.0, 0.0, 1.6670468467774792E9, 0.0, 2022-10-29 14:34:06.777
22.0, 1114.9576742900535, 1806.0145181524567, 684.0090023959056, -61.95144276600331, 0.01600000075995922, 0.01600000075995922, 0.7520000357180834, 0.0, 0.0, 0.0, 0.0, 0.0, 1.6670468467910922E9, 0.0, 2022-10-29 14:34:06.791
22.0, 893.8977977591567, 1628.8012287020683, 752.1985982879996, -54.99522884842008, 0.01600000075995922, 0.01600000075995922, 0.7520000357180834, 0.0, 0.0, 0.0, 0.0, 0.0, 1.6670468467910922E9, 0.0, 2022-10-29 14:34:06.791
23.0, 774.7801142204553, 1789.6655454961583, 803.9550737747923, 12.88395534735173, 0.01600000075995922, 0.01600000075995922, 0.7520000357180834, 0.0, 0.0, 0.0, 0.0, 0.0, 1.66704684680662E9, 0.0, 2022-10-29 14:34:06.806
23.0, 638.2962052375078, 1563.7531487727538, 948.9977438063361, -154.76827986631542, 0.01600000075995922, 0.01600000075995922, 0.7520000357180834, 0.0, 0.0, 0.0, 0.0, 0.0, 1.66704684680662E9, 0.0, 2022-10-29 14:34:06.806
24.0, 669.2831463203765, 1333.898897496052, 769.9612531275488, 4.841300492640585, 0.01600000075995922, 0.01600000075995922, 0.7520000357180834, 0.0, 0.0, 0.0, 0.0, 0.0, 1.6670468468074028E9, 0.0, 2022-10-29 14:34:06.807
24.0, 487.6081562228501, 1210.6972432057373, 821.8149660131894, -1.8998691774904728, 0.01600000075995922, 0.01600000075995922, 0.7520000357180834, 0.0, 0.0, 0.0, 0.0, 0.0, 1.6670468468074028E9, 0.0, 2022-10-29 14:34:06.807
25.0, 263.6236779266037, 1265.565315455664, 773.9722958300263, 8.796244695782661, 0.01600000075995922, 0.01600000075995922, 0.7520000357180834, 0.0, 0.0, 0.0, 0.0, 0.0, 1.6670468468209908E9, 0.0, 2022-10-29 14:34:06.820
25.0, 247.44487071828917, 1158.9931263183244, 569.9270941475406, -46.99558284319937, 0.01600000075995922, 0.01600000075995922, 0.7520000357180834, 0.0, 0.0, 0.0, 0.0, 0.0, 1.6670468468209908E9, 0.0, 2022-10-29 14:34:06.820
26.0, 259.6051554242149, 932.3514491035603, 369.8087874185294, 100.11151196388528, 0.01600000075995922, 0.01600000075995922, 0.7520000357180834, 0.0, 0.0, 0.0, 0.0, 0.0, 1.6670468468365724E9, 0.0, 2022-10-29 14:34:06.836
26.0, 97.83391289087012, 815.7694177348167, 408.13528216443956, 60.88557127863169, 0.01600000075995922, 0.01600000075995922, 0.7520000357180834, 0.0, 0.0, 0.0, 0.0, 0.0, 1.6670468468365724E9, 0.0, 2022-10-29 14:34:06.836
27.0, 311.8721272549592, 806.0886866995133, 319.4977832646109, 50.97670634603128, 0.01600000075995922, 0.01600000075995922, 0.7520000357180834, 0.0, 0.0, 0.0, 0.0, 0.0, 1.6670468468373463E9, 0.0, 2022-10-29 14:34:06.837
27.0, 426.1279408512637, 842.8799525136128, 261.9594224463217, 104.33946886379272, 0.01600000075995922, 0.01600000075995922, 0.7520000357180834, 0.0, 0.0, 0.0, 0.0, 0.0, 1.6670468468373463E9, 0.0, 2022-10-29 14:34:06.837
28.0, 312.46864129789174, 1002.9682400668971, 450.8785987580195, 217.42469377396628, 0.01600000075995922, 0.01600000075995922, 0.7520000357180834, 0.0, 0.0, 0.0, 0.0, 0.0, 1.6670468468509493E9, 0.0, 2022-10-29 14:34:06.850
28.0, 207.61867609014735, 914.4055391661823, 467.49497426114976, 135.20486319810152, 0.01600000075995922, 0.01600000075995922, 0.7520000357180834, 0.0, 0.0, 0.0, 0.0, 0.0, 1.6670468468509493E9, 0.0, 2022-10-29 14:34:06.850
29.0, 333.2493954016827, 829.212488125544, 320.93016494764015, 77.97504412615672, 0.01600000075995922, 0.01600000075995922, 0.7520000357180834, 0.0, 0.0, 0.0, 0.0, 0.0, 1.6670468468667407E9, 0.0, 2022-10-29 14:34:06.866
29.0, 540.8381522921845, 966.4612066494301, 368.23428953718394, 213.25657527334988, 0.01600000075995922, 0.01600000075995922, 0.7520000357180834, 0.0, 0.0, 0.0, 0.0, 0.0, 1.6670468468667407E9, 0.0, 2022-10-29 14:34:06.866
30.0, 380.0673329969868, 1045.4497636635788, 531.9764593471773, 287.5178987435065, 0.01600000075995922, 0.01600000075995922, 0.8800000417977571, 0.0, 0.0, 0.0, 0.0, 0.0, 1.6670468468676145E9, 0.0, 2022-10-29 14:34:06.867
30.0, 284.24174638232216, 996.7768356902525, 526.914504757151, 166.47416672762483, 0.01600000075995922, 0.01600000075995922, 0.8800000417977571, 0.0, 0.0, 0.0, 0.0, 0.0, 1.6670468468676145E9, 0.0, 2022-10-29 14:34:06.867
31.0, 459.40744060697034, 951.9709642711096, 426.39160379813984, 93.82474013837054, 0.01600000075995922, 0.01600000075995922, 0.8800000417977571, 0.0, 0.0, 0.0, 0.0, 0.0, 1.6670468468811061E9, 0.0, 2022-10-29 14:34:06.881
31.0, 657.2574980128556, 1055.87847469002, 475.6404763646424, 297.8381526712328, 0.01600000075995922, 0.01600000075995922, 0.8800000417977571, 0.0, 0.0, 0.0, 0.0, 0.0, 1.6670468468811061E9, 0.0, 2022-10-29 14:34:06.881
32.0, 417.0960824582726, 1082.231679727789, 586.167609705124, 388.3119424493052, 0.01600000075995922, 0.01600000075995922, 0.8800000417977571, 0.0, 0.0, 0.0, 0.0, 0.0, 1.6670468468966084E9, 0.0, 2022-10-29 14:34:06.896
32.0, 382.62729451665655, 1099.3118028254248, 594.3879098077305, 201.9433779073879, 0.01600000075995922, 0.01600000075995922, 0.8800000417977571, 0.0, 0.0, 0.0, 0.0, 0.0, 1.6670468468966084E9, 0.0, 2022-10-29 14:34:06.896
33.0, 529.4969056765549, 1025.884477045387, 476.8110650507733, 120.92405521729961, 0.01600000075995922, 0.01600000075995922, 0.8800000417977571, 0.0, 0.0, 0.0, 0.0, 0.0, 1.667046846897364E9, 0.0, 2022-10-29 14:34:06.897
33.0, 752.3968129856512, 1170.1193286865018, 564.0947201666422, -108.38791056582704, 0.01600000075995922, 0.01600000075995922, 0.8800000417977571, 0.0, 0.0, 0.0, 0.0, 0.0, 1.667046846897364E9, 0.0, 2022-10-29 14:34:06.897
34.0, 974.1747503080405, 1150.3838766203262, 654.7218458428979, -56.00126193650067, 0.01600000075995922, 0.01600000075995922, 0.8800000417977571, 0.0, 0.0, 0.0, 0.0, 0.0, 1.6670468469109871E9, 0.0, 2022-10-29 14:34:06.910
34.0, 988.954834932927, 1187.9736110749654, 670.5154433557764, -239.9875102066435, 0.01600000075995922, 0.01600000075995922, 0.8800000417977571, 0.0, 0.0, 0.0, 0.0, 0.0, 1.6670468469109871E9, 0.0, 2022-10-29 14:34:06.910
35.0, 1098.7208986324258, 1076.9677705401555, 520.6819614809938, -361.0312422225252, 0.01600000075995922, 0.01600000075995922, 0.8800000417977571, 0.0, 0.0, 0.0, 0.0, 0.0, 1.6670468469266868E9, 0.0, 2022-10-29 14:34:06.926
35.0, 1329.0706866532564, 1243.7205598144792, 633.8382444903255, -527.6998837478459, 0.01600000075995922, 0.01600000075995922, 0.8800000417977571, 0.0, 0.0, 0.0, 0.0, 0.0, 1.6670468469266868E9, 0.0, 2022-10-29 14:34:06.926
36.0, 1476.4358345572837, 1158.948247518856, 674.1337965629064, -503.2241084878333, 0.01600000075995922, 0.01600000075995922, 0.8800000417977571, 0.0, 0.0, 0.0, 0.0, 0.0, 1.6670468469273677E9, 0.0, 2022-10-29 14:34:06.927
36.0, 1498.8453150917776, 1210.592526006978, 693.2035464369692, -727.1936271842569, 0.01600000075995922, 0.01600000075995922, 0.8800000417977571, 0.0, 0.0, 0.0, 0.0, 0.0, 1.6670468469273677E9, 0.0, 2022-10-29 14:34:06.927
37.0, 1670.6525791562162, 1162.6600982248783, 586.9511187458411, -818.1087251571007, 0.01600000075995922, 0.01600000075995922, 0.8800000417977571, 0.0, 0.0, 0.0, 0.0, 0.0, 1.6670468469409215E9, 0.0, 2022-10-29 14:34:06.940
37.0, 1868.5662148613483, 1283.872125738766, 676.8676634305157, -919.5909104547463, 0.01600000075995922, 0.01600000075995922, 0.8800000417977571, 0.0, 0.0, 0.0, 0.0, 0.0, 1.6670468469409215E9, 0.0, 2022-10-29 14:34:06.940
38.0, 1991.648192353081, 1191.7845691298135, 708.112657610327, -944.0348965651356, 0.01600000075995922, 0.01600000075995922, 0.8800000417977571, 0.0, 0.0, 0.0, 0.0, 0.0, 1.6670468469566135E9, 0.0, 2022-10-29 14:34:06.956
38.0, 1987.932601747103, 1205.334226669278, 686.7484791134484, -708.0509492610581, 0.01600000075995922, 0.01600000075995922, 0.8800000417977571, 0.0, 0.0, 0.0, 0.0, 0.0, 1.6670468469566135E9, 0.0, 2022-10-29 14:34:06.956
39.0, 1758.371932616923, 1242.9164813240059, 663.1852394426242, -791.8078787187114, 0.01600000075995922, 0.01600000075995922, 0.8800000417977571, 0.0, 0.0, 0.0, 0.0, 0.0, 1.6670468469574444E9, 0.0, 2022-10-29 14:34:06.957
39.0, 1902.4908473594114, 1315.8389206100255, 700.8703413461335, -871.5500255739316, 0.01600000075995922, 0.01600000075995922, 0.8800000417977571, 0.0, 0.0, 0.0, 0.0, 0.0, 1.6670468469574444E9, 0.0, 2022-10-29 14:34:06.957
40.0, 2040.8764954698272, 1233.7929953821003, 743.5930884899572, -911.4285788014531, 0.01600000075995922, 0.01600000075995922, 0.944000044837594, 0.0, 0.0, 0.0, 0.0, 0.0, 1.6670468469709623E9, 0.0, 2022-10-29 14:34:06.970
40.0, 2016.782190005295, 1212.6569507825188, 691.614088955801, -713.8571439422667, 0.01600000075995922, 0.01600000075995922, 0.944000044837594, 0.0, 0.0, 0.0, 0.0, 0.0, 1.6670468469709623E9, 0.0, 2022-10-29 14:34:06.970
41.0, 1918.7276230170391, 1399.7903248653747, 802.5245620417409, -758.4984597633593, 0.01600000075995922, 0.01600000075995922, 0.944000044837594, 0.0, 0.0, 0.0, 0.0, 0.0, 1.667046846986588E9, 0.0, 2022-10-29 14:34:06.986
41.0, 2012.5710626551881, 1416.0345803229138, 774.1985597773455, -826.2841464602388, 0.01600000075995922, 0.01600000075995922, 0.944000044837594, 0.0, 0.0, 0.0, 0.0, 0.0, 1.667046846986588E9, 0.0, 2022-10-29 14:34:06.986
42.0, 2069.292255333159, 1251.127431676723, 773.9068475808017, -859.4233999676071, 0.01600000075995922, 0.01600000075995922, 0.944000044837594, 0.0, 0.0, 0.0, 0.0, 0.0, 1.6670468469874012E9, 0.0, 2022-10-29 14:34:06.987
42.0, 2007.2080461187288, 1213.1393978768028, 675.4072324978188, -707.063615672756, 0.01600000075995922, 0.01600000075995922, 0.944000044837594, 0.0, 0.0, 0.0, 0.0, 0.0, 1.6670468469874012E9, 0.0, 2022-10-29 14:34:06.987
43.0, 1852.4790352019481, 1352.5441687251441, 713.7898257430643, -758.2572362162173, 0.01600000075995922, 0.01600000075995922, 0.944000044837594, 0.0, 0.0, 0.0, 0.0, 0.0, 1.667046847000987E9, 0.0, 2022-10-29 14:34:07.000
43.0, 2017.866760992445, 1433.9935799101368, 768.7831846415065, -815.1710337419063, 0.01600000075995922, 0.01600000075995922, 0.944000044837594, 0.0, 0.0, 0.0, 0.0, 0.0, 1.667046847000987E9, 0.0, 2022-10-29 14:34:07.000
44.0, 2084.046160658356, 1265.3427914083004, 796.9652007576078, -873.7266473481432, 0.01600000075995922, 0.01600000075995922, 0.944000044837594, 0.0, 0.0, 0.0, 0.0, 0.0, 1.6670468470166008E9, 0.0, 2022-10-29 14:34:07.016
44.0, 1953.8471535509452, 1146.4495018669404, 623.6713264607824, -706.0332732349634, 0.01600000075995922, 0.01600000075995922, 0.944000044837594, 0.0, 0.0, 0.0, 0.0, 0.0, 1.6670468470166008E9, 0.0, 2022-10-29 14:34:07.016
45.0, 1809.316849813331, 1292.5636532357894, 689.4486868814565, -726.9337041373365, 0.01600000075995922, 0.01600000075995922, 0.944000044837594, 0.0, 0.0, 0.0, 0.0, 0.0, 1.667046847017315E9, 0.0, 2022-10-29 14:34:07.017
45.0, 1617.1121713905595, 1508.1670157313347, 854.0472937813029, -784.890933750663, 0.01600000075995922, 0.01600000075995922, 0.944000044837594, 0.0, 0.0, 0.0, 0.0, 0.0, 1.667046847017315E9, 0.0, 2022-10-29 14:34:07.017
46.0, 1646.0122482981533, 1318.8532799743116, 858.002237984445, -842.032865173649, 0.01600000075995922, 0.01600000075995922, 0.944000044837594, 0.0, 0.0, 0.0, 0.0, 0.0, 1.667046847030947E9, 0.0, 2022-10-29 14:34:07.030
46.0, 1509.6311865639873, 1182.360021241475, 654.7816842421889, -693.1324883378111, 0.01600000075995922, 0.01600000075995922, 0.944000044837594, 0.0, 0.0, 0.0, 0.0, 0.0, 1.667046847030947E9, 0.0, 2022-10-29 14:34:07.030
47.0, 1283.8777355886996, 1247.2884243722074, 654.9574595401064, -725.2040004078299, 0.01600000075995922, 0.01600000075995922, 0.944000044837594, 0.0, 0.0, 0.0, 0.0, 0.0, 1.6670468470466805E9, 0.0, 2022-10-29 14:34:07.046
47.0, 1152.1173202497885, 1042.7607755954377, 899.5525264921598, -728.4053547699004, 0.01600000075995922, 0.01600000075995922, 0.944000044837594, 0.0, 0.0, 0.0, 0.0, 0.0, 1.6670468470466805E9, 0.0, 2022-10-29 14:34:07.046
48.0, 1150.928032063879, 808.2578286738135, 857.8975207856856, -823.1594600472599, 0.01600000075995922, 0.01600000075995922, 0.944000044837594, 0.0, 0.0, 0.0, 0.0, 0.0, 1.667046847047434E9, 0.0, 2022-10-29 14:34:07.047
48.0, 1043.190864090342, 732.0143582271412, 668.9559050742537, -677.0116495788097, 0.01600000075995922, 0.01600000075995922, 0.944000044837594, 0.0, 0.0, 0.0, 0.0, 0.0, 1.667046847047434E9, 0.0, 2022-10-29 14:34:07.047
49.0, 827.5650621950626, 787.3947967709973, 668.651103227865, -715.1455394770019, 0.01600000075995922, 0.01600000075995922, 0.944000044837594, 0.0, 0.0, 0.0, 0.0, 0.0, 1.6670468470609322E9, 0.0, 2022-10-29 14:34:07.060
49.0, 764.2822150448337, 642.5970901865512, 498.4108572448604, -674.3937196098268, 0.01600000075995922, 0.01600000075995922, 0.944000044837594, 0.0, 0.0, 0.0, 0.0, 0.0, 1.6670468470609322E9, 0.0, 2022-10-29 14:34:07.060
50.0, 708.1799758095294, 869.592187947128, 417.030634209048, -781.6989291384816, 0.01600000075995922, 0.01600000075995922, 0.9760000463575125, 0.0, 0.0, 0.0, 0.0, 0.0, 1.667046847076651E9, 0.0, 2022-10-29 14:34:07.076
50.0, 592.4431618307717, 761.9335578726605, 212.0261481879279, -645.7086869496852, 0.01600000075995922, 0.01600000075995922, 0.9760000463575125, 0.0, 0.0, 0.0, 0.0, 0.0, 1.667046847076651E9, 0.0, 2022-10-29 14:34:07.076
51.0, 811.4816224356182, 761.2024074313231, 174.89829137781635, -684.3960820413195, 0.01600000075995922, 0.01600000075995922, 0.9760000463575125, 0.0, 0.0, 0.0, 0.0, 0.0, 1.6670468470774033E9, 0.0, 2022-10-29 14:34:07.077
51.0, 863.8794907648116, 738.3665783018805, 95.99762201262638, -602.9429309563711, 0.01600000075995922, 0.01600000075995922, 0.9760000463575125, 0.0, 0.0, 0.0, 0.0, 0.0, 1.6670468470774033E9, 0.0, 2022-10-29 14:34:07.077
52.0, 742.7703104997054, 899.3524418445304, -5.155452088918537, -740.1374209308997, 0.01600000075995922, 0.01600000075995922, 0.9760000463575125, 0.0, 0.0, 0.0, 0.0, 0.0, 1.6670468470909824E9, 0.0, 2022-10-29 14:34:07.090
52.0, 580.2810071748681, 741.7175286621787, 208.2282797829248, -636.2280405620113, 0.01600000075995922, 0.01600000075995922, 0.9760000463575125, 0.0, 0.0, 0.0, 0.0, 0.0, 1.6670468470909824E9, 0.0, 2022-10-29 14:34:07.090
53.0, 805.273388509173, 762.0663243210874, 167.09873002022505, -705.6274940897711, 0.01600000075995922, 0.01600000075995922, 0.9760000463575125, 0.0, 0.0, 0.0, 0.0, 0.0, 1.667046847106771E9, 0.0, 2022-10-29 14:34:07.106
53.0, 874.5195061387494, 754.810918407049, 134.04923411179334, -539.4768287083134, 0.01600000075995922, 0.01600000075995922, 0.9760000463575125, 0.0, 0.0, 0.0, 0.0, 0.0, 1.667046847106771E9, 0.0, 2022-10-29 14:34:07.106
54.0, 822.0225304607302, 969.3633690150455, 89.151735143736, -658.0166977038607, 0.01600000075995922, 0.01600000075995922, 0.9760000463575125, 0.0, 0.0, 0.0, 0.0, 0.0, 1.667046847107418E9, 0.0, 2022-10-29 14:34:07.107
54.0, 579.087979089003, 727.92851752555, 206.37889925483614, -630.8986831251532, 0.01600000075995922, 0.01600000075995922, 0.9760000463575125, 0.0, 0.0, 0.0, 0.0, 0.0, 1.667046847107418E9, 0.0, 2022-10-29 14:34:07.107
55.0, 781.2557509937324, 710.6370900804177, 137.62270851945505, -699.8830077578314, 0.01600000075995922, 0.01600000075995922, 0.9760000463575125, 0.0, 0.0, 0.0, 0.0, 0.0, 1.667046847120958E9, 0.0, 2022-10-29 14:34:07.120
55.0, 898.9934114487842, 767.2535655596294, 162.43133487552404, -488.5319115119055, 0.01600000075995922, 0.01600000075995922, 0.9760000463575125, 0.0, 0.0, 0.0, 0.0, 0.0, 1.667046847120958E9, 0.0, 2022-10-29 14:34:07.120
56.0, 919.7218069531955, 589.8738505612127, 195.32562493579462, -591.3791602933779, 0.01600000075995922, 0.01600000075995922, 0.9760000463575125, 0.0, 0.0, 0.0, 0.0, 0.0, 1.6670468471366687E9, 0.0, 2022-10-29 14:34:07.136
56.0, 1095.4185669715516, 750.0462858635001, 208.3778757811524, -640.5868939603679, 0.01600000075995922, 0.01600000075995922, 0.9760000463575125, 0.0, 0.0, 0.0, 0.0, 0.0, 1.6670468471366687E9, 0.0, 2022-10-29 14:34:07.136
57.0, 1268.7404905180447, 724.3849623175338, 107.53708332590759, -728.5661704679951, 0.01600000075995922, 0.01600000075995922, 0.9760000463575125, 0.0, 0.0, 0.0, 0.0, 0.0, 1.6670468471374784E9, 0.0, 2022-10-29 14:34:07.137
57.0, 1469.0551419947296, 831.2918725009076, 203.7403998360969, -495.5535736787133, 0.01600000075995922, 0.01600000075995922, 0.9760000463575125, 0.0, 0.0, 0.0, 0.0, 0.0, 1.6670468471374784E9, 0.0, 2022-10-29 14:34:07.137
58.0, 1471.618843414355, 616.7824307424016, 227.47193500492722, -600.857936731074, 0.01600000075995922, 0.01600000075995922, 0.9760000463575125, 0.0, 0.0, 0.0, 0.0, 0.0, 1.6670468471509569E9, 0.0, 2022-10-29 14:34:07.150
58.0, 1678.446530663874, 835.1028305557556, 271.8271484794095, -608.1039928952232, 0.01600000075995922, 0.01600000075995922, 0.9760000463575125, 0.0, 0.0, 0.0, 0.0, 0.0, 1.6670468471509569E9, 0.0, 2022-10-29 14:34:07.150
59.0, 1813.415780164767, 765.0937733352184, 160.4248785492964, -691.7337657543831, 0.01600000075995922, 0.01600000075995922, 0.9760000463575125, 0.0, 0.0, 0.0, 0.0, 0.0, 1.6670468471667795E9, 0.0, 2022-10-29 14:34:07.166
59.0, 1612.4298166460358, 982.7129419068806, 344.73649811558425, -893.0189212695695, 0.01600000075995922, 0.01600000075995922, 0.9760000463575125, 0.0, 0.0, 0.0, 0.0, 0.0, 1.6670468471667795E9, 0.0, 2022-10-29 14:34:07.166
60.0, 1489.4656460029073, 1117.9084553550929, 284.4343512300402, -1063.6481168479659, 0.01600000075995922, 0.01600000075995922, 0.9760000463575125, 0.0, 0.0, 0.0, 0.0, 0.0, 1.667046847167395E9, 0.0, 2022-10-29 14:34:07.167
60.0, 1639.8470232211985, 1277.0860772691667, 216.23914548801258, -1148.8935264879838, 0.01600000075995922, 0.01600000075995922, 0.9760000463575125, 0.0, 0.0, 0.0, 0.0, 0.0, 1.667046847167395E9, 0.0, 2022-10-29 14:34:07.167
61.0, 1711.4960265723057, 1159.1015834170394, 32.12948051933199, -1273.897812556941, 0.01600000075995922, 0.01600000075995922, 0.9760000463575125, 0.0, 0.0, 0.0, 0.0, 0.0, 1.6670468471809795E9, 0.0, 2022-10-29 14:34:07.180
61.0, 1656.3063229261898, 1034.218844096642, -120.53323567193002, -1370.7724411091767, 0.01600000075995922, 0.01600000075995922, 0.9760000463575125, 0.0, 0.0, 0.0, 0.0, 0.0, 1.6670468471809795E9, 0.0, 2022-10-29 14:34:07.180
62.0, 1470.1939415312372, 1123.5818835878745, -220.6578372856602, -1531.1356113092043, 0.01600000075995922, 0.01600000075995922, 0.9760000463575125, 0.0, 0.0, 0.0, 0.0, 0.0, 1.6670468471967232E9, 0.0, 2022-10-29 14:34:07.196
62.0, 1645.4157342552207, 1283.4775662934408, -282.46155400341377, -1613.149747387506, 0.01600000075995922, 0.01600000075995922, 0.9760000463575125, 0.0, 0.0, 0.0, 0.0, 0.0, 1.6670468471967232E9, 0.0, 2022-10-29 14:34:07.196
63.0, 1770.7771807699464, 1236.6110099987127, -434.12010705657303, -1756.9545105337165, 0.01600000075995922, 0.01600000075995922, 0.9760000463575125, 0.0, 0.0, 0.0, 0.0, 0.0, 1.6670468471974375E9, 0.0, 2022-10-29 14:34:07.197
63.0, 1762.014595173765, 1137.8514718688093, -538.0070480257273, -1753.354856826365, 0.01600000075995922, 0.01600000075995922, 0.9760000463575125, 0.0, 0.0, 0.0, 0.0, 0.0, 1.6670468471974375E9, 0.0, 2022-10-29 14:34:07.197
64.0, 1965.0593736181036, 1109.357174106408, -705.8986368365586, -1908.1193967927247, 0.01600000075995922, 0.01600000075995922, 0.9760000463575125, 0.0, 0.0, 0.0, 0.0, 0.0, 1.6670468472109945E9, 0.0, 2022-10-29 14:34:07.210
64.0, 2157.724059735425, 1318.99352622265, -773.4430999862961, -2063.491670501884, 0.01600000075995922, 0.01600000075995922, 0.9760000463575125, 0.0, 0.0, 0.0, 0.0, 0.0, 1.6670468472109945E9, 0.0, 2022-10-29 14:34:07.210
65.0, 2254.8006428852677, 1223.4446922047064, -948.3675706638023, -1823.2292776484974, 0.01600000075995922, 0.01600000075995922, 0.9760000463575125, 0.0, 0.0, 0.0, 0.0, 0.0, 1.6670468472266617E9, 0.0, 2022-10-29 14:34:07.226
65.0, 2351.18347459333, 1234.1800750275142, -952.8180516110733, -1778.2625905312598, 0.01600000075995922, 0.01600000075995922, 0.9760000463575125, 0.0, 0.0, 0.0, 0.0, 0.0, 1.6670468472266617E9, 0.0, 2022-10-29 14:34:07.226
66.0, 2522.5699999127537, 1204.1299788835458, -1091.579559667036, -1922.4357338231057, 0.01600000075995922, 0.01600000075995922, 0.9760000463575125, 0.0, 0.0, 0.0, 0.0, 0.0, 1.667046847227446E9, 0.0, 2022-10-29 14:34:07.227
66.0, 2678.4041512664407, 1352.2000979292206, -1241.4541804413311, -2148.7651293915696, 0.01600000075995922, 0.01600000075995922, 0.9760000463575125, 0.0, 0.0, 0.0, 0.0, 0.0, 1.667046847227446E9, 0.0, 2022-10-29 14:34:07.227
67.0, 2744.2937086857855, 1229.5706483321264, -1460.4683316964656, -2370.1765565183014, 0.01600000075995922, 0.01600000075995922, 0.9760000463575125, 0.0, 0.0, 0.0, 0.0, 0.0, 1.6670468472573419E9, 0.0, 2022-10-29 14:34:07.257
67.0, 2791.4257978773676, 1182.6162043884397, -1499.0865386389196, -2260.973347762134, 0.01600000075995922, 0.01600000075995922, 0.9760000463575125, 0.0, 0.0, 0.0, 0.0, 0.0, 1.6670468472573419E9, 0.0, 2022-10-29 14:34:07.257
68.0, 2585.9257751121186, 1255.119774879422, -1547.7987355617806, -2380.5379493455403, 0.01600000075995922, 0.01600000075995922, 0.9760000463575125, 0.0, 0.0, 0.0, 0.0, 0.0, 1.6670468472580616E9, 0.0, 2022-10-29 14:34:07.258
68.0, 2519.2414889521897, 1184.2580204689875, -1412.3993975659832, -2222.2130246213637, 0.01600000075995922, 0.01600000075995922, 0.9760000463575125, 0.0, 0.0, 0.0, 0.0, 0.0, 1.6670468472580616E9, 0.0, 2022-10-29 14:34:07.258
69.0, 2675.4795495010912, 1149.9463083255105, -1577.4654919602908, -2447.8430588981137, 0.01600000075995922, 0.01600000075995922, 0.9760000463575125, 0.0, 0.0, 0.0, 0.0, 0.0, 1.667046847258766E9, 0.0, 2022-10-29 14:34:07.258
69.0, 2833.0097454846837, 1222.6144344145432, -1476.419005007483, -2221.498703729827, 0.01600000075995922, 0.01600000075995922, 0.9760000463575125, 0.0, 0.0, 0.0, 0.0, 0.0, 1.667046847258766E9, 0.0, 2022-10-29 14:34:07.258
70.0, 2614.924959368538, 1284.2124566347338, -1516.305038034916, -2306.5328090223484, 0.01600000075995922, 0.01600000075995922, 0.9920000471174717, 0.0, 0.0, 0.0, 0.0, 0.0, 1.6670468472709398E9, 0.0, 2022-10-29 14:34:07.270
70.0, 2571.072762438096, 1228.949824939482, -1348.6191437216476, -2113.2472995123826, 0.01600000075995922, 0.01600000075995922, 0.9920000471174717, 0.0, 0.0, 0.0, 0.0, 0.0, 1.6670468472709398E9, 0.0, 2022-10-29 14:34:07.270
71.0, 2725.4333932092413, 1182.8985668350942, -1505.509816812817, -2350.5533014507964, 0.01600000075995922, 0.01600000075995922, 0.9920000471174717, 0.0, 0.0, 0.0, 0.0, 0.0, 1.66704684728685E9, 0.0, 2022-10-29 14:34:07.286
71.0, 2906.4352013147436, 1300.9279394866899, -1410.6192051870748, -2180.1728092194535, 0.01600000075995922, 0.01600000075995922, 0.9920000471174717, 0.0, 0.0, 0.0, 0.0, 0.0, 1.66704684728685E9, 0.0, 2022-10-29 14:34:07.286
72.0, 3033.3505762610584, 1226.2383974716067, -1564.54600756336, -2383.918818905484, 0.01600000075995922, 0.01600000075995922, 0.9920000471174717, 0.0, 0.0, 0.0, 0.0, 0.0, 1.667046847287408E9, 0.0, 2022-10-29 14:34:07.287
72.0, 2969.710568665061, 1152.4707407956012, -1412.376958166249, -2194.2011739532463, 0.01600000075995922, 0.01600000075995922, 0.9920000471174717, 0.0, 0.0, 0.0, 0.0, 0.0, 1.667046847287408E9, 0.0, 2022-10-29 14:34:07.287
73.0, 3195.955816484522, 1180.067462568637, -1514.9081854014657, -2384.350777350366, 0.01600000075995922, 0.01600000075995922, 0.9920000471174717, 0.0, 0.0, 0.0, 0.0, 0.0, 1.6670468473010168E9, 0.0, 2022-10-29 14:34:07.301
73.0, 3350.6549082016572, 1269.4903404591605, -1394.5787742771208, -2141.767776574474, 0.01600000075995922, 0.01600000075995922, 0.9920000471174717, 0.0, 0.0, 0.0, 0.0, 0.0, 1.6670468473010168E9, 0.0, 2022-10-29 14:34:07.301
74.0, 3124.521857380867, 1309.8906097305007, -1405.963029742241, -2250.2173954895698, 0.01600000075995922, 0.01600000075995922, 0.9920000471174717, 0.0, 0.0, 0.0, 0.0, 0.0, 1.66704684731672E9, 0.0, 2022-10-29 14:34:07.316
74.0, 2945.2591027547605, 1133.212125973776, -1382.685892418027, -2161.1890770443715, 0.01600000075995922, 0.01600000075995922, 0.9920000471174717, 0.0, 0.0, 0.0, 0.0, 0.0, 1.66704684731672E9, 0.0, 2022-10-29 14:34:07.316
75.0, 3177.8584405989386, 1170.7382821291685, -1466.4316021758132, -2331.1469605807215, 0.01600000075995922, 0.01600000075995922, 0.9920000471174717, 0.0, 0.0, 0.0, 0.0, 0.0, 1.667046847317418E9, 0.0, 2022-10-29 14:34:07.317
75.0, 3021.680218449328, 952.653496013023, -1678.4876695633866, -2521.964136119932, 0.01600000075995922, 0.01600000075995922, 0.9920000471174717, 0.0, 0.0, 0.0, 0.0, 0.0, 1.667046847317418E9, 0.0, 2022-10-29 14:34:07.317
76.0, 3151.6062128599733, 836.847493885085, -1850.9531560200267, -2749.4921696241945, 0.01600000075995922, 0.01600000075995922, 0.9920000471174717, 0.0, 0.0, 0.0, 0.0, 0.0, 1.6670468473310373E9, 0.0, 2022-10-29 14:34:07.331
76.0, 2941.0891143041663, 656.8778981673531, -1863.7791429180652, -2637.3512694528326, 0.01600000075995922, 0.01600000075995922, 0.9920000471174717, 0.0, 0.0, 0.0, 0.0, 0.0, 1.6670468473310373E9, 0.0, 2022-10-29 14:34:07.331
77.0, 3056.7343007340096, 567.1072095809504, -2099.9930940694176, -2865.217763903085, 0.01600000075995922, 0.01600000075995922, 0.9920000471174717, 0.0, 0.0, 0.0, 0.0, 0.0, 1.667046847346759E9, 0.0, 2022-10-29 14:34:07.346
77.0, 2889.2615807182156, 324.80657125171274, -1860.5441294563934, -2625.1928546968848, 0.01600000075995922, 0.01600000075995922, 0.9920000471174717, 0.0, 0.0, 0.0, 0.0, 0.0, 1.667046847346759E9, 0.0, 2022-10-29 14:34:07.346
78.0, 3131.1601798022166, 346.5260402443819, -1926.5870227739215, -2765.0052746403962, 0.01600000075995922, 0.01600000075995922, 0.9920000471174717, 0.0, 0.0, 0.0, 0.0, 0.0, 1.6670468473474388E9, 0.0, 2022-10-29 14:34:07.347
78.0, 2894.392723457422, 115.46567123197019, -1919.2381193609908, -2642.1196418963373, 0.01600000075995922, 0.01600000075995922, 0.9920000471174717, 0.0, 0.0, 0.0, 0.0, 0.0, 1.6670468473474388E9, 0.0, 2022-10-29 14:34:07.347
79.0, 3035.817040281836, 59.71685254247859, -2088.0665531107225, -2860.539149058517, 0.01600000075995922, 0.01600000075995922, 0.9920000471174717, 0.0, 0.0, 0.0, 0.0, 0.0, 1.6670468473610704E9, 0.0, 2022-10-29 14:34:07.361
79.0, 3067.473423456773, 6.7411696701310575, -2171.1035518269055, -3028.6813111663796, 0.01600000075995922, 0.01600000075995922, 0.9920000471174717, 0.0, 0.0, 0.0, 0.0, 0.0, 1.6670468473610704E9, 0.0, 2022-10-29 14:34:07.361
80.0, 3164.5219573569484, -119.42061543511227, -2313.9490306344815, -3227.9618803053163, 0.01600000075995922, 0.01600000075995922, 1.008000047877431, 0.0, 0.0, 0.0, 0.0, 0.0, 1.6670468473766537E9, 0.0, 2022-10-29 14:34:07.376
80.0, 2971.399133495055, -301.9146436229348, -2338.4696846939623, -3116.247328728903, 0.01600000075995922, 0.01600000075995922, 1.008000047877431, 0.0, 0.0, 0.0, 0.0, 0.0, 1.6670468473766537E9, 0.0, 2022-10-29 14:34:07.376
81.0, 2985.1918845316395, -469.1760592912324, -2115.848399931565, -3326.4091367889196, 0.01600000075995922, 0.01600000075995922, 1.008000047877431, 0.0, 0.0, 0.0, 0.0, 0.0, 1.6670468473774047E9, 0.0, 2022-10-29 14:34:07.377
81.0, 3221.3609568835236, -320.5318656023592, -2033.6323092556559, -3421.8364240583032, 0.01600000075995922, 0.01600000075995922, 1.008000047877431, 0.0, 0.0, 0.0, 0.0, 0.0, 1.6670468473774047E9, 0.0, 2022-10-29 14:34:07.377
82.0, 3195.8211800861172, -555.618236917071, -2267.555571684148, -3646.6754694944248, 0.01600000075995922, 0.01600000075995922, 1.008000047877431, 0.0, 0.0, 0.0, 0.0, 0.0, 1.667046847390986E9, 0.0, 2022-10-29 14:34:07.390
82.0, 3054.8924000058323, -698.1177749787457, -2262.8021588404663, -3574.4467816501856, 0.01600000075995922, 0.01600000075995922, 1.008000047877431, 0.0, 0.0, 0.0, 0.0, 0.0, 1.667046847390986E9, 0.0, 2022-10-29 14:34:07.390
83.0, 2973.0839584250934, -497.26644785841927, -2124.0556103843264, -3345.703280660324, 0.01600000075995922, 0.01600000075995922, 1.008000047877431, 0.0, 0.0, 0.0, 0.0, 0.0, 1.6670468474067347E9, 0.0, 2022-10-29 14:34:07.406
83.0, 2781.2383103980683, -272.77334316819906, -1995.2852450599894, -3405.0779323568568, 0.01600000075995922, 0.01600000075995922, 1.008000047877431, 0.0, 0.0, 0.0, 0.0, 0.0, 1.6670468474067347E9, 0.0, 2022-10-29 14:34:07.406
84.0, 2697.3149553923868, -78.88757971534505, -1809.990031805355, -3165.576609144453, 0.01600000075995922, 0.01600000075995922, 1.008000047877431, 0.0, 0.0, 0.0, 0.0, 0.0, 1.6670468474073865E9, 0.0, 2022-10-29 14:34:07.407
84.0, 2598.4189109141007, -191.88304702658206, -1758.1699780193157, -3078.6949932738207, 0.01600000075995922, 0.01600000075995922, 1.008000047877431, 0.0, 0.0, 0.0, 0.0, 0.0, 1.6670468474073865E9, 0.0, 2022-10-29 14:34:07.407
85.0, 2421.7815660568886, -73.12252393364906, -1683.2934410064481, -2880.775747718755, 0.01600000075995922, 0.01600000075995922, 1.008000047877431, 0.0, 0.0, 0.0, 0.0, 0.0, 1.6670468474209776E9, 0.0, 2022-10-29 14:34:07.420
85.0, 2364.246945138555, -211.12857219856232, -1445.9500400684774, -2860.481180609204, 0.01600000075995922, 0.01600000075995922, 1.008000047877431, 0.0, 0.0, 0.0, 0.0, 0.0, 1.6670468474209776E9, 0.0, 2022-10-29 14:34:07.420
86.0, 2171.593478721101, -105.85225839586928, -1328.9603596045636, -2652.4548554238863, 0.01600000075995922, 0.01600000075995922, 1.008000047877431, 0.0, 0.0, 0.0, 0.0, 0.0, 1.6670468474530537E9, 0.0, 2022-10-29 14:34:07.453
86.0, 2130.5424668574706, -154.6336434679106, -1249.4800057462417, -2545.961204185616, 0.01600000075995922, 0.01600000075995922, 1.008000047877431, 0.0, 0.0, 0.0, 0.0, 0.0, 1.6670468474530537E9, 0.0, 2022-10-29 14:34:07.453
87.0, 1914.942844261881, -102.92578668054193, -1205.9064313624986, -2342.611623894889, 0.01600000075995922, 0.01600000075995922, 1.008000047877431, 0.0, 0.0, 0.0, 0.0, 0.0, 1.667046847453756E9, 0.0, 2022-10-29 14:34:07.453
87.0, 2010.5402969792485, -67.60056164907292, -1345.6290937070735, -2302.7910391166806, 0.01600000075995922, 0.01600000075995922, 1.008000047877431, 0.0, 0.0, 0.0, 0.0, 0.0, 1.667046847453756E9, 0.0, 2022-10-29 14:34:07.453
88.0, 2125.5627900664695, -168.9481105483137, -1349.7018447588198, -2174.918249781709, 0.01600000075995922, 0.01600000075995922, 1.008000047877431, 0.0, 0.0, 0.0, 0.0, 0.0, 1.667046847454471E9, 0.0, 2022-10-29 14:34:07.454
88.0, 2101.834994797595, -203.63755258731544, -1259.895627122838, -2060.9447986320592, 0.01600000075995922, 0.01600000075995922, 1.008000047877431, 0.0, 0.0, 0.0, 0.0, 0.0, 1.667046847454471E9, 0.0, 2022-10-29 14:34:07.454
89.0, 1929.921143584419, -69.54717957600951, -1181.1445537558757, -1854.4275230788626, 0.01600000075995922, 0.01600000075995922, 1.008000047877431, 0.0, 0.0, 0.0, 0.0, 0.0, 1.6670468474553518E9, 0.0, 2022-10-29 14:34:07.455
89.0, 2070.8910625642166, 14.67723737610504, -1291.8156732446514, -1781.3517478946596, 0.01600000075995922, 0.01600000075995922, 1.008000047877431, 0.0, 0.0, 0.0, 0.0, 0.0, 1.6670468474553518E9, 0.0, 2022-10-29 14:34:07.455
90.0, 2163.447976617608, -135.98089243890718, -1304.8305250904523, -1662.6304937512614, 0.01600000075995922, 0.01600000075995922, 0.9920000471174717, 0.0, 0.0, 0.0, 0.0, 0.0, 1.6670468474659507E9, 0.0, 2022-10-29 14:34:07.465
90.0, 2102.145406493917, -184.70617901161313, -1263.4485320807435, -1572.842975615058, 0.01600000075995922, 0.01600000075995922, 0.9920000471174717, 0.0, 0.0, 0.0, 0.0, 0.0, 1.6670468474659507E9, 0.0, 2022-10-29 14:34:07.465
91.0, 1972.8851142753847, -36.90159286279231, -1140.4806215376593, -1355.0873006950133, 0.01600000075995922, 0.01600000075995922, 0.9920000471174717, 0.0, 0.0, 0.0, 0.0, 0.0, 1.6670468474810174E9, 0.0, 2022-10-29 14:34:07.481
91.0, 2084.489338803105, 3.895105803851038, -1255.7256386722438, -1278.432441253215, 0.01600000075995922, 0.01600000075995922, 0.9920000471174717, 0.0, 0.0, 0.0, 0.0, 0.0, 1.6670468474810174E9, 0.0, 2022-10-29 14:34:07.481
92.0, 2225.777149279136, -51.545171139296144, -1268.254303523805, -1106.9860775345005, 0.01600000075995922, 0.01600000075995922, 0.9920000471174717, 0.0, 0.0, 0.0, 0.0, 0.0, 1.6670468474966328E9, 0.0, 2022-10-29 14:34:07.496
92.0, 2103.289815880358, -187.4250862793997, -1252.6402212087996, -1096.1104484633543, 0.01600000075995922, 0.01600000075995922, 0.9920000471174717, 0.0, 0.0, 0.0, 0.0, 0.0, 1.6670468474966328E9, 0.0, 2022-10-29 14:34:07.496
93.0, 1959.2606587368064, -43.88024618010968, -1135.0353272021748, -907.7316876952536, 0.01600000075995922, 0.01600000075995922, 0.9920000471174717, 0.0, 0.0, 0.0, 0.0, 0.0, 1.6670468474974253E9, 0.0, 2022-10-29 14:34:07.497
93.0, 1934.5025210301392, -137.3253864729777, -913.1638923808932, -888.1664010770619, 0.01600000075995922, 0.01600000075995922, 0.9920000471174717, 0.0, 0.0, 0.0, 0.0, 0.0, 1.6670468474974253E9, 0.0, 2022-10-29 14:34:07.497
94.0, 2110.7284768922254, -185.08016900718212, -917.6068935282528, -791.1029075770639, 0.01600000075995922, 0.01600000075995922, 0.9920000471174717, 0.0, 0.0, 0.0, 0.0, 0.0, 1.667046847510901E9, 0.0, 2022-10-29 14:34:07.510
94.0, 2355.2655753949657, 56.85021922644228, -994.2991519696079, -773.843269281555, 0.01600000075995922, 0.01600000075995922, 0.9920000471174717, 0.0, 0.0, 0.0, 0.0, 0.0, 1.667046847510901E9, 0.0, 2022-10-29 14:34:07.510
95.0, 2339.7206812291406, -154.39989972067997, -791.5816147713922, -551.7193912132643, 0.01600000075995922, 0.01600000075995922, 0.9920000471174717, 0.0, 0.0, 0.0, 0.0, 0.0, 1.667046847526626E9, 0.0, 2022-10-29 14:34:07.526
95.0, 2270.3006582516246, -300.13632119400427, -567.0623307814822, -496.3109034197405, 0.01600000075995922, 0.01600000075995922, 0.9920000471174717, 0.0, 0.0, 0.0, 0.0, 0.0, 1.667046847526626E9, 0.0, 2022-10-29 14:34:07.526
96.0, 2150.994109765161, -132.85994592588395, -401.1285795974545, -313.2334508388303, 0.01600000075995922, 0.01600000075995922, 0.9920000471174717, 0.0, 0.0, 0.0, 0.0, 0.0, 1.6670468475273964E9, 0.0, 2022-10-29 14:34:07.527
96.0, 2336.1154176718555, 53.96301646064967, -504.9837314169854, -316.2571599530056, 0.01600000075995922, 0.01600000075995922, 0.9920000471174717, 0.0, 0.0, 0.0, 0.0, 0.0, 1.6670468475273964E9, 0.0, 2022-10-29 14:34:07.527
97.0, 2438.9589265533723, -22.617044982034713, -701.9062936338596, -560.6502723074518, 0.01600000075995922, 0.01600000075995922, 0.9920000471174717, 0.0, 0.0, 0.0, 0.0, 0.0, 1.6670468475409396E9, 0.0, 2022-10-29 14:34:07.540
97.0, 2264.518772920128, 210.3544129077345, -550.565632076934, -533.3022538814694, 0.01600000075995922, 0.01600000075995922, 0.9920000471174717, 0.0, 0.0, 0.0, 0.0, 0.0, 1.6670468475409396E9, 0.0, 2022-10-29 14:34:07.540
98.0, 2195.6933940355666, 403.44731756998226, -366.01839881343767, -291.5569906956516, 0.01600000075995922, 0.01600000075995922, 0.9920000471174717, 0.0, 0.0, 0.0, 0.0, 0.0, 1.6670468475570607E9, 0.0, 2022-10-29 14:34:07.557
98.0, 2336.4183495682664, 535.0543970107101, -494.5980292400345, -306.0397532740608, 0.01600000075995922, 0.01600000075995922, 0.9920000471174717, 0.0, 0.0, 0.0, 0.0, 0.0, 1.6670468475570607E9, 0.0, 2022-10-29 14:34:07.557
99.0, 2466.544428626541, 482.7163670808077, -689.7703182776459, -539.7666709548794, 0.01600000075995922, 0.01600000075995922, 0.9920000471174717, 0.0, 0.0, 0.0, 0.0, 0.0, 1.6670468475573947E9, 0.0, 2022-10-29 14:34:07.557
99.0, 2347.290238739457, 301.45837582834065, -492.84775606077164, -416.25086506828666, 0.01600000075995922, 0.01600000075995922, 0.9920000471174717, 0.0, 0.0, 0.0, 0.0, 0.0, 1.6670468475573947E9, 0.0, 2022-10-29 14:34:07.557
100.0, 2227.6433593570255, 441.8897492145188, -328.4249244588427, -259.6145051741041, 0.01600000075995922, 0.01600000075995922, 0.9920000471174717, 0.0, 0.0, 0.0, 0.0, 0.0, 1.66704684757166E9, 0.0, 2022-10-29 14:34:07.571
100.0, 2345.7269605579786, 559.490903321188, -527.2361361533403, -334.7584450338036, 0.01600000075995922, 0.01600000075995922, 0.9920000471174717, 0.0, 0.0, 0.0, 0.0, 0.0, 1.66704684757166E9, 0.0, 2022-10-29 14:34:07.571
0.0, 12735.69823330827, 12717.44191167457, 9068.952590701636, 3327.729321473278, 0.01600000075995922, 0.01600000075995922, 0.9920000471174717, 0.0, 0.0, 0.0, 0.0, 0.0, 1.667046847572523E9, 0.0, 2022-10-29 14:34:07.572
1.0, 12722.533785464242, 12631.065182297956, 8863.463787636254, 3501.5318221640773, 0.01600000075995922, 0.01600000075995922, 0.9920000471174717, 0.0, 0.0, 0.0, 0.0, 0.0, 1.667046847585971E9, 0.0, 2022-10-29 14:34:07.585
1.0, 12528.343220165, 12702.551500000991, 9001.4754457511, 3670.5322913117707, 0.01600000075995922, 0.01600000075995922, 0.9920000471174717, 0.0, 0.0, 0.0, 0.0, 0.0, 1.667046847585971E9, 0.0, 2022-10-29 14:34:07.585
2.0, 12675.231530824676, 12844.38720582053, 8833.525888490956, 3579.059948245529, 0.01600000075995922, 0.01600000075995922, 0.9920000471174717, 0.0, 0.0, 0.0, 0.0, 0.0, 1.6670468476016362E9, 0.0, 2022-10-29 14:34:07.601
2.0, 12769.993115901947, 12737.936563431751, 8597.77568493411, 3749.3039341284893, 0.01600000075995922, 0.01600000075995922, 0.9920000471174717, 0.0, 0.0, 0.0, 0.0, 0.0, 1.6670468476016362E9, 0.0, 2022-10-29 14:34:07.601
3.0, 12704.829099074006, 12596.515986507293, 8370.681479824707, 3989.6317752311006, 0.01600000075995922, 0.01600000075995922, 0.9920000471174717, 0.0, 0.0, 0.0, 0.0, 0.0, 1.667046847602535E9, 0.0, 2022-10-29 14:34:07.602
3.0, 12574.213093121536, 12733.573970133439, 8566.59052915359, 4212.168912244495, 0.01600000075995922, 0.01600000075995922, 0.9920000471174717, 0.0, 0.0, 0.0, 0.0, 0.0, 1.667046847602535E9, 0.0, 2022-10-29 14:34:07.602
4.0, 12553.843728012871, 12718.997710056137, 8737.144926732872, 3988.1844339482486, 0.01600000075995922, 0.01600000075995922, 0.9920000471174717, 0.0, 0.0, 0.0, 0.0, 0.0, 1.66704684761606E9, 0.0, 2022-10-29 14:34:07.616
4.0, 12631.00908379862, 12605.119626355357, 8913.765442040283, 4020.9534373600036, 0.01600000075995922, 0.01600000075995922, 0.9920000471174717, 0.0, 0.0, 0.0, 0.0, 0.0, 1.66704684761606E9, 0.0, 2022-10-29 14:34:07.616
5.0, 12600.656055758242, 12502.107821975835, 8825.716977383476, 4017.5202092006803, 0.01600000075995922, 0.01600000075995922, 0.9920000471174717, 0.0, 0.0, 0.0, 0.0, 0.0, 1.6670468476318245E9, 0.0, 2022-10-29 14:34:07.631
5.0, 12503.29150031181, 12664.7803803985, 9024.243956681341, 4035.567096436862, 0.01600000075995922, 0.01600000075995922, 0.9920000471174717, 0.0, 0.0, 0.0, 0.0, 0.0, 1.6670468476318245E9, 0.0, 2022-10-29 14:34:07.631
6.0, 12407.204120700248, 12558.038025813177, 9105.485803418793, 3911.0078584626317, 0.01600000075995922, 0.01600000075995922, 0.9920000471174717, 0.0, 0.0, 0.0, 0.0, 0.0, 1.6670468476323836E9, 0.0, 2022-10-29 14:34:07.632
6.0, 12213.54649114469, 12653.360595883802, 8993.376692397054, 4136.9165152860805, 0.01600000075995922, 0.01600000075995922, 0.9920000471174717, 0.0, 0.0, 0.0, 0.0, 0.0, 1.6670468476323836E9, 0.0, 2022-10-29 14:34:07.632
7.0, 11969.289885138627, 12845.335270459298, 9177.845387761481, 4024.80927421432, 0.01600000075995922, 0.01600000075995922, 0.9920000471174717, 0.0, 0.0, 0.0, 0.0, 0.0, 1.6670468476459732E9, 0.0, 2022-10-29 14:34:07.645
7.0, 12043.401612610556, 12693.173700862098, 9027.142379147, 4140.837800389621, 0.01600000075995922, 0.01600000075995922, 0.9920000471174717, 0.0, 0.0, 0.0, 0.0, 0.0, 1.6670468476459732E9, 0.0, 2022-10-29 14:34:07.645
8.0, 12015.593586490024, 12652.967906388454, 9173.222871416248, 4088.6231871582568, 0.01600000075995922, 0.01600000075995922, 0.9920000471174717, 0.0, 0.0, 0.0, 0.0, 0.0, 1.6670468476617532E9, 0.0, 2022-10-29 14:34:07.661
8.0, 11938.276764756069, 12869.45575522352, 9219.044125673361, 3995.5913058104925, 0.01600000075995922, 0.01600000075995922, 0.9920000471174717, 0.0, 0.0, 0.0, 0.0, 0.0, 1.6670468476617532E9, 0.0, 2022-10-29 14:34:07.661
9.0, 11710.086768959649, 13046.463350176346, 9366.368134677876, 4154.378108179197, 0.01600000075995922, 0.01600000075995922, 0.9920000471174717, 0.0, 0.0, 0.0, 0.0, 0.0, 1.6670468476623845E9, 0.0, 2022-10-29 14:34:07.662
9.0, 11693.040304961614, 12828.041973064188, 9155.048827581573, 4314.907703927252, 0.01600000075995922, 0.01600000075995922, 0.9920000471174717, 0.0, 0.0, 0.0, 0.0, 0.0, 1.6670468476623845E9, 0.0, 2022-10-29 14:34:07.662
10.0, 11928.485706672072, 13050.04243443394, 9089.88668070361, 4508.7691580303945, 0.01600000075995922, 0.01600000075995922, 0.9920000471174717, 0.0, 0.0, 0.0, 0.0, 0.0, 1.6670468476759417E9, 0.0, 2022-10-29 14:34:07.675
10.0, 11729.775472276378, 13171.256331897806, 9038.5621636617, 4362.649396811612, 0.01600000075995922, 0.01600000075995922, 0.9920000471174717, 0.0, 0.0, 0.0, 0.0, 0.0, 1.6670468476759417E9, 0.0, 2022-10-29 14:34:07.675
11.0, 11796.272763438523, 13133.199109948706, 8964.557023338508, 4278.494168008678, 0.01600000075995922, 0.01600000075995922, 0.9920000471174717, 0.0, 0.0, 0.0, 0.0, 0.0, 1.6670468476917155E9, 0.0, 2022-10-29 14:34:07.691
11.0, 11744.045060557313, 13347.979694454, 9202.468889069743, 4333.345410708804, 0.01600000075995922, 0.01600000075995922, 0.9920000471174717, 0.0, 0.0, 0.0, 0.0, 0.0, 1.6670468476917155E9, 0.0, 2022-10-29 14:34:07.691
12.0, 11829.139004249126, 13448.209013266489, 8983.914745509159, 4407.062578735407, 0.01600000075995922, 0.01600000075995922, 0.9920000471174717, 0.0, 0.0, 0.0, 0.0, 0.0, 1.6670468476924005E9, 0.0, 2022-10-29 14:34:07.692
12.0, 11613.528161953669, 13536.960579114966, 8926.677446637303, 4256.028588974848, 0.01600000075995922, 0.01600000075995922, 0.9920000471174717, 0.0, 0.0, 0.0, 0.0, 0.0, 1.6670468476924005E9, 0.0, 2022-10-29 14:34:07.692
13.0, 11807.0698546106, 13654.500024872366, 8961.351929076482, 4279.771343843546, 0.01600000075995922, 0.01600000075995922, 0.9920000471174717, 0.0, 0.0, 0.0, 0.0, 0.0, 1.667046847705952E9, 0.0, 2022-10-29 14:34:07.705
13.0, 11767.916841974482, 13886.401871374808, 8730.457985612098, 4355.75302129332, 0.01600000075995922, 0.01600000075995922, 0.9920000471174717, 0.0, 0.0, 0.0, 0.0, 0.0, 1.667046847705952E9, 0.0, 2022-10-29 14:34:07.705
14.0, 11840.153009618632, 13932.006211434491, 8515.16877471283, 4442.384063866921, 0.01600000075995922, 0.01600000075995922, 0.9920000471174717, 0.0, 0.0, 0.0, 0.0, 0.0, 1.667046847721714E9, 0.0, 2022-10-29 14:34:07.721
14.0, 11667.622074912768, 14073.344510559924, 8494.343141809572, 4296.342840547208, 0.01600000075995922, 0.01600000075995922, 0.9920000471174717, 0.0, 0.0, 0.0, 0.0, 0.0, 1.667046847721714E9, 0.0, 2022-10-29 14:34:07.721
15.0, 11844.783005763777, 14187.334791259374, 8501.645296473056, 4308.282471155748, 0.01600000075995922, 0.01600000075995922, 0.9920000471174717, 0.0, 0.0, 0.0, 0.0, 0.0, 1.667046847722396E9, 0.0, 2022-10-29 14:34:07.722
15.0, 11731.445337606594, 14346.271189626306, 8700.161056071054, 4325.6524364999495, 0.01600000075995922, 0.01600000075995922, 0.9920000471174717, 0.0, 0.0, 0.0, 0.0, 0.0, 1.667046847722396E9, 0.0, 2022-10-29 14:34:07.722
16.0, 11886.583867568523, 14468.281685780734, 8553.125019363128, 4489.617130357306, 0.01600000075995922, 0.01600000075995922, 0.9920000471174717, 0.0, 0.0, 0.0, 0.0, 0.0, 1.6670468477360144E9, 0.0, 2022-10-29 14:34:07.736
16.0, 11857.272401665803, 14256.160170143936, 8662.296438969672, 4470.9830788280815, 0.01600000075995922, 0.01600000075995922, 0.9920000471174717, 0.0, 0.0, 0.0, 0.0, 0.0, 1.6670468477360144E9, 0.0, 2022-10-29 14:34:07.736
17.0, 11857.547284312546, 14204.542070955504, 8508.212560795248, 4253.148866008967, 0.01600000075995922, 0.01600000075995922, 0.9920000471174717, 0.0, 0.0, 0.0, 0.0, 0.0, 1.6670468477516751E9, 0.0, 2022-10-29 14:34:07.751
17.0, 12096.80551402783, 14218.187095943838, 8596.461110099684, 4215.779785651714, 0.01600000075995922, 0.01600000075995922, 0.9920000471174717, 0.0, 0.0, 0.0, 0.0, 0.0, 1.6670468477516751E9, 0.0, 2022-10-29 14:34:07.751
18.0, 11914.04969284311, 14013.87449141452, 8588.56057144329, 4010.4387086345814, 0.01600000075995922, 0.01600000075995922, 0.9920000471174717, 0.0, 0.0, 0.0, 0.0, 0.0, 1.6670468477524223E9, 0.0, 2022-10-29 14:34:07.752
18.0, 12044.332847699523, 13963.776661558077, 8355.66765145259, 4103.58839683095, 0.01600000075995922, 0.01600000075995922, 0.9920000471174717, 0.0, 0.0, 0.0, 0.0, 0.0, 1.6670468477524223E9, 0.0, 2022-10-29 14:34:07.752
19.0, 11845.329031157307, 14204.175560759846, 8481.677970609628, 4193.37030511722, 0.01600000075995922, 0.01600000075995922, 0.9920000471174717, 0.0, 0.0, 0.0, 0.0, 0.0, 1.6670468477660165E9, 0.0, 2022-10-29 14:34:07.766
19.0, 11667.119058368728, 14285.752128543332, 8597.676577585284, 4152.078069706447, 0.01600000075995922, 0.01600000075995922, 0.9920000471174717, 0.0, 0.0, 0.0, 0.0, 0.0, 1.6670468477660165E9, 0.0, 2022-10-29 14:34:07.766
20.0, 11521.526623043697, 14116.385149199981, 8669.740709831472, 4067.3899051598273, 0.01600000075995922, 0.01600000075995922, 0.9920000471174717, 0.0, 0.0, 0.0, 0.0, 0.0, 1.6670468477817528E9, 0.0, 2022-10-29 14:34:07.781
20.0, 11532.63038601214, 13959.501955908723, 8896.584341643844, 4296.978623539675, 0.01600000075995922, 0.01600000075995922, 0.9920000471174717, 0.0, 0.0, 0.0, 0.0, 0.0, 1.6670468477817528E9, 0.0, 2022-10-29 14:34:07.781
21.0, 11762.411709239706, 14121.12360244384, 8873.972906511743, 4121.136007423047, 0.01600000075995922, 0.01600000075995922, 0.9920000471174717, 0.0, 0.0, 0.0, 0.0, 0.0, 1.6670468477823575E9, 0.0, 2022-10-29 14:34:07.782
21.0, 11542.812263641506, 14147.461847881787, 8930.10693489667, 4028.40144812176, 0.01600000075995922, 0.01600000075995922, 0.9920000471174717, 0.0, 0.0, 0.0, 0.0, 0.0, 1.6670468477823575E9, 0.0, 2022-10-29 14:34:07.782
22.0, 11458.935657385271, 14045.816976936068, 9102.680878452025, 4062.3821791191585, 0.0, 0.01600000075995922, 0.9920000471174717, 0.0, 0.0, 0.0, 0.0, 0.0, 1.6670468477960303E9, 0.0, 2022-10-29 14:34:07.796
22.0, 11689.014302659314, 14099.660316598136, 9047.025557261426, 3930.5263963313773, 0.0, 0.01600000075995922, 0.9920000471174717, 0.0, 0.0, 0.0, 0.0, 0.0, 1.6670468477960303E9, 0.0, 2022-10-29 14:34:07.796
23.0, 11718.03405636549, 14089.016561324243, 8822.257569924463, 4003.9238029117696, 0.0, 0.01600000075995922, 0.9920000471174717, 0.0, 0.0, 0.0, 0.0, 0.0, 1.667046847811607E9, 0.0, 2022-10-29 14:34:07.811
23.0, 11710.591655453667, 13884.148581651505, 8653.838655219879, 4198.60242515523, 0.0, 0.01600000075995922, 0.9920000471174717, 0.0, 0.0, 0.0, 0.0, 0.0, 1.667046847811607E9, 0.0, 2022-10-29 14:34:07.811
24.0, 11932.038611629978, 14041.583410186227, 8608.004311312921, 4040.6608401765116, 0.0, 0.01600000075995922, 0.9920000471174717, 0.0, 0.0, 0.0, 0.0, 0.0, 1.6670468478124332E9, 0.0, 2022-10-29 14:34:07.812
24.0, 12126.79390182253, 14051.740978465881, 8480.483072573785, 3829.148928232491, 0.0, 0.01600000075995922, 0.9920000471174717, 0.0, 0.0, 0.0, 0.0, 0.0, 1.6670468478124332E9, 0.0, 2022-10-29 14:34:07.812
25.0, 12031.340435253456, 13892.51847775234, 8628.255869572982, 3820.5434184344485, 0.0, 0.01600000075995922, 0.9920000471174717, 0.0, 0.0, 0.0, 0.0, 0.0, 1.6670468478260348E9, 0.0, 2022-10-29 14:34:07.826
25.0, 11982.422543833032, 14119.782848309726, 8420.855977630243, 3983.825580549892, 0.0, 0.01600000075995922, 0.9920000471174717, 0.0, 0.0, 0.0, 0.0, 0.0, 1.6670468478260348E9, 0.0, 2022-10-29 14:34:07.826
26.0, 11958.115064071026, 14081.869612508919, 8647.119924949482, 4059.8764461488463, 0.0, 0.01600000075995922, 0.9920000471174717, 0.0, 0.0, 0.0, 0.0, 0.0, 1.6670468478417137E9, 0.0, 2022-10-29 14:34:07.841
26.0, 12090.997449396644, 14040.541848048568, 8481.122595466208, 4289.629720126744, 0.0, 0.01600000075995922, 0.9920000471174717, 0.0, 0.0, 0.0, 0.0, 0.0, 1.6670468478417137E9, 0.0, 2022-10-29 14:34:07.841
27.0, 12057.233632596675, 13910.93935498409, 8663.474507455714, 4320.1529136151075, 0.0, 0.01600000075995922, 0.9920000471174717, 0.0, 0.0, 0.0, 0.0, 0.0, 1.6670468478423636E9, 0.0, 2022-10-29 14:34:07.842
27.0, 11974.084436881822, 14084.640878376085, 8899.864233904984, 4467.779854516033, 0.0, 0.01600000075995922, 0.9920000471174717, 0.0, 0.0, 0.0, 0.0, 0.0, 1.6670468478423636E9, 0.0, 2022-10-29 14:34:07.842
28.0, 11983.826876266394, 14110.502286569681, 8682.031891035847, 4614.421331778634, 0.0, 0.01600000075995922, 0.9920000471174717, 0.0, 0.0, 0.0, 0.0, 0.0, 1.66704684785599E9, 0.0, 2022-10-29 14:34:07.855
28.0, 11983.86427526595, 13923.669974433258, 8842.163187438622, 4694.795521726366, 0.0, 0.01600000075995922, 0.9920000471174717, 0.0, 0.0, 0.0, 0.0, 0.0, 1.66704684785599E9, 0.0, 2022-10-29 14:34:07.855
29.0, 12018.673394103535, 13907.749220321886, 8632.33610042464, 4778.481393084861, 0.0, 0.01600000075995922, 0.9920000471174717, 0.0, 0.0, 0.0, 0.0, 0.0, 1.6670468478716657E9, 0.0, 2022-10-29 14:34:07.871
29.0, 12224.511877814773, 13894.285580481403, 8682.254415083211, 4701.734906094149, 0.0, 0.01600000075995922, 0.9920000471174717, 0.0, 0.0, 0.0, 0.0, 0.0, 1.6670468478716657E9, 0.0, 2022-10-29 14:34:07.871
30.0, 12324.131592934486, 13951.962317598052, 8534.975284878165, 4894.13031941466, 0.0, 0.01600000075995922, 0.9920000471174717, 0.0, 0.0, 0.0, 0.0, 0.0, 1.667046847872402E9, 0.0, 2022-10-29 14:34:07.872
30.0, 12338.795740660746, 13795.958000796381, 8764.096515763551, 5045.487810521387, 0.0, 0.01600000075995922, 0.9920000471174717, 0.0, 0.0, 0.0, 0.0, 0.0, 1.667046847872402E9, 0.0, 2022-10-29 14:34:07.872
31.0, 12250.421904707793, 13643.134468907025, 8872.09173683403, 5002.478961030953, 0.0, 0.01600000075995922, 0.9920000471174717, 0.0, 0.0, 0.0, 0.0, 0.0, 1.667046847885986E9, 0.0, 2022-10-29 14:34:07.885
31.0, 12053.605929639656, 13721.898631923832, 8989.287111795507, 4978.857752910815, 0.0, 0.01600000075995922, 0.9920000471174717, 0.0, 0.0, 0.0, 0.0, 0.0, 1.667046847885986E9, 0.0, 2022-10-29 14:34:07.885
32.0, 12274.01693352824, 13914.481040242128, 8977.182925588917, 4858.584440285806, 0.01600000075995922, 0.01600000075995922, 0.9920000471174717, 0.0, 0.0, 0.0, 0.0, 0.0, 1.6670468479016464E9, 0.0, 2022-10-29 14:34:07.901
32.0, 12149.988761347719, 14123.14501836989, 9071.802394467872, 4978.519291964825, 0.01600000075995922, 0.01600000075995922, 0.9920000471174717, 0.0, 0.0, 0.0, 0.0, 0.0, 1.6670468479016464E9, 0.0, 2022-10-29 14:34:07.901
33.0, 11910.3958105864, 14297.72915815143, 9023.325811242219, 5114.713358701207, 0.01600000075995922, 0.01600000075995922, 0.9920000471174717, 0.0, 0.0, 0.0, 0.0, 0.0, 1.6670468479023683E9, 0.0, 2022-10-29 14:34:07.902
33.0, 11780.591362924315, 14397.743432716466, 9173.331328514963, 5114.868564549368, 0.01600000075995922, 0.01600000075995922, 0.9920000471174717, 0.0, 0.0, 0.0, 0.0, 0.0, 1.6670468479023683E9, 0.0, 2022-10-29 14:34:07.902
34.0, 11855.337003438734, 14466.699708099477, 9049.549989731517, 4943.422200830653, 0.01600000075995922, 0.01600000075995922, 0.9920000471174717, 0.0, 0.0, 0.0, 0.0, 0.0, 1.6670468479160593E9, 0.0, 2022-10-29 14:34:07.916
34.0, 12065.0219742544, 14512.105833461508, 9031.484402995557, 4952.633574421518, 0.01600000075995922, 0.01600000075995922, 0.9920000471174717, 0.0, 0.0, 0.0, 0.0, 0.0, 1.6670468479160593E9, 0.0, 2022-10-29 14:34:07.916
35.0, 12026.78149720747, 14394.624356153421, 9135.975337807555, 4736.474836782552, 0.01600000075995922, 0.01600000075995922, 0.9920000471174717, 0.0, 0.0, 0.0, 0.0, 0.0, 1.6670468479316978E9, 0.0, 2022-10-29 14:34:07.931
35.0, 11879.238704055548, 14485.8910047221, 9266.593213710003, 4725.408472813666, 0.01600000075995922, 0.01600000075995922, 0.9920000471174717, 0.0, 0.0, 0.0, 0.0, 0.0, 1.6670468479316978E9, 0.0, 2022-10-29 14:34:07.931
36.0, 11838.464444788639, 14458.995514190756, 9506.743409564719, 4935.437514425255, 0.01600000075995922, 0.01600000075995922, 0.9920000471174717, 0.0, 0.0, 0.0, 0.0, 0.0, 1.66704684793245E9, 0.0, 2022-10-29 14:34:07.932
36.0, 11915.53256317554, 14369.538977200631, 9364.831035796087, 4828.98313213652, 0.01600000075995922, 0.01600000075995922, 0.9920000471174717, 0.0, 0.0, 0.0, 0.0, 0.0, 1.66704684793245E9, 0.0, 2022-10-29 14:34:07.932
37.0, 12100.251831836998, 14480.59717633482, 9196.277484693099, 4818.223439964, 0.01600000075995922, 0.01600000075995922, 0.9920000471174717, 0.0, 0.0, 0.0, 0.0, 0.0, 1.667046847962299E9, 0.0, 2022-10-29 14:34:07.962
37.0, 12040.398472946137, 14674.602616586257, 9411.47693799343, 4860.875129008666, 0.01600000075995922, 0.01600000075995922, 0.9920000471174717, 0.0, 0.0, 0.0, 0.0, 0.0, 1.667046847962299E9, 0.0, 2022-10-29 14:34:07.962
38.0, 11833.909246642608, 14449.410150604323, 9497.266503077, 4935.777845321223, 0.01600000075995922, 0.01600000075995922, 0.9920000471174717, 0.0, 0.0, 0.0, 0.0, 0.0, 1.667046847963066E9, 0.0, 2022-10-29 14:34:07.963
38.0, 11814.729169719853, 14235.25412939163, 9256.306618881878, 4763.082355017308, 0.01600000075995922, 0.01600000075995922, 0.9920000471174717, 0.0, 0.0, 0.0, 0.0, 0.0, 1.667046847963066E9, 0.0, 2022-10-29 14:34:07.963
39.0, 11719.070008653216, 14110.292852172162, 9278.142024773173, 4925.73247404024, 0.01600000075995922, 0.01600000075995922, 0.9920000471174717, 0.0, 0.0, 0.0, 0.0, 0.0, 1.6670468479638407E9, 0.0, 2022-10-29 14:34:07.963
39.0, 11672.758827501908, 14315.121562895365, 9500.522085988428, 4966.8171450034715, 0.01600000075995922, 0.01600000075995922, 0.9920000471174717, 0.0, 0.0, 0.0, 0.0, 0.0, 1.6670468479638407E9, 0.0, 2022-10-29 14:34:07.963
40.0, 11807.941251300275, 14419.868680854328, 9466.588103740476, 4908.4316968452185, 0.01600000075995922, 0.01600000075995922, 0.9920000471174717, 0.0, 0.0, 0.0, 0.0, 0.0, 1.6670468479759505E9, 0.0, 2022-10-29 14:34:07.975
40.0, 11665.722205735277, 14598.190850641578, 9607.42151637189, 5151.218522168696, 0.01600000075995922, 0.01600000075995922, 0.9920000471174717, 0.0, 0.0, 0.0, 0.0, 0.0, 1.6670468479759505E9, 0.0, 2022-10-29 14:34:07.975
41.0, 11792.858234778978, 14680.414421117399, 9838.956852678675, 4998.840038374066, 0.01600000075995922, 0.01600000075995922, 0.9920000471174717, 0.0, 0.0, 0.0, 0.0, 0.0, 1.6670468479919271E9, 0.0, 2022-10-29 14:34:07.991
41.0, 11790.24404470995, 14444.235999015626, 9617.84274759842, 5065.920753929298, 0.01600000075995922, 0.01600000075995922, 0.9920000471174717, 0.0, 0.0, 0.0, 0.0, 0.0, 1.6670468479919271E9, 0.0, 2022-10-29 14:34:07.991
42.0, 11770.16639179783, 14384.773459670134, 9430.621485866606, 4884.163486032747, 0.01600000075995922, 0.01600000075995922, 0.9920000471174717, 0.0, 0.0, 0.0, 0.0, 0.0, 1.6670468479924753E9, 0.0, 2022-10-29 14:34:07.992
42.0, 11525.664822344668, 14455.940015926957, 9474.52417144645, 5053.378999427892, 0.01600000075995922, 0.01600000075995922, 0.9920000471174717, 0.0, 0.0, 0.0, 0.0, 0.0, 1.6670468479924753E9, 0.0, 2022-10-29 14:34:07.992
43.0, 11316.2079854263, 14678.181700843852, 9377.862717191689, 4992.695382746868, 0.01600000075995922, 0.01600000075995922, 0.9920000471174717, 0.0, 0.0, 0.0, 0.0, 0.0, 1.6670468480059965E9, 0.0, 2022-10-29 14:34:08.005
43.0, 11376.60923966067, 14510.772559127305, 9189.895345418714, 5109.898237508256, 0.01600000075995922, 0.01600000075995922, 0.9920000471174717, 0.0, 0.0, 0.0, 0.0, 0.0, 1.6670468480059965E9, 0.0, 2022-10-29 14:34:08.005
44.0, 11255.154118649662, 14356.843886801042, 9380.402109261602, 5354.842985106166, 0.01600000075995922, 0.01600000075995922, 0.9920000471174717, 0.0, 0.0, 0.0, 0.0, 0.0, 1.6670468480216591E9, 0.0, 2022-10-29 14:34:08.021
44.0, 11383.458866429515, 14324.847172730137, 9345.910881920252, 5449.37643628614, 0.01600000075995922, 0.01600000075995922, 0.9920000471174717, 0.0, 0.0, 0.0, 0.0, 0.0, 1.6670468480216591E9, 0.0, 2022-10-29 14:34:08.021
45.0, 11362.246153880842, 14252.584825786296, 9416.929712128825, 5544.573719708249, 0.01600000075995922, 0.01600000075995922, 0.9920000471174717, 0.0, 0.0, 0.0, 0.0, 0.0, 1.667046848022393E9, 0.0, 2022-10-29 14:34:08.022
45.0, 11435.26583056571, 14075.496822984423, 9241.10205561202, 5656.095666436944, 0.01600000075995922, 0.01600000075995922, 0.9920000471174717, 0.0, 0.0, 0.0, 0.0, 0.0, 1.667046848022393E9, 0.0, 2022-10-29 14:34:08.022
46.0, 11201.969001379795, 14305.878400154877, 9332.800662625581, 5799.23659734102, 0.01600000075995922, 0.01600000075995922, 0.9920000471174717, 0.0, 0.0, 0.0, 0.0, 0.0, 1.667046848036006E9, 0.0, 2022-10-29 14:34:08.036
46.0, 11280.67519594729, 14205.770628090948, 9261.98752691457, 5833.318305637222, 0.01600000075995922, 0.01600000075995922, 0.9920000471174717, 0.0, 0.0, 0.0, 0.0, 0.0, 1.667046848036006E9, 0.0, 2022-10-29 14:34:08.036
47.0, 11354.547569822054, 14231.121539940592, 9413.926572464406, 5948.460475523025, 0.01600000075995922, 0.01600000075995922, 0.9920000471174717, 0.0, 0.0, 0.0, 0.0, 0.0, 1.667046848051658E9, 0.0, 2022-10-29 14:34:08.051
47.0, 11205.781829384621, 14330.915160408244, 9517.325456489343, 6157.952841490973, 0.01600000075995922, 0.01600000075995922, 0.9920000471174717, 0.0, 0.0, 0.0, 0.0, 0.0, 1.667046848051658E9, 0.0, 2022-10-29 14:34:08.051
48.0, 11390.435649796855, 14496.289796548896, 9544.978276761714, 6205.69640432531, 0.01600000075995922, 0.01600000075995922, 0.9920000471174717, 0.0, 0.0, 0.0, 0.0, 0.0, 1.6670468480524063E9, 0.0, 2022-10-29 14:34:08.052
48.0, 11590.25476452941, 14537.525933460332, 9603.029003873933, 6067.957758907229, 0.01600000075995922, 0.01600000075995922, 0.9920000471174717, 0.0, 0.0, 0.0, 0.0, 0.0, 1.6670468480524063E9, 0.0, 2022-10-29 14:34:08.052
49.0, 11442.480097580235, 14333.473251977935, 9491.53136649495, 6091.038551483769, 0.01600000075995922, 0.01600000075995922, 0.9920000471174717, 0.0, 0.0, 0.0, 0.0, 0.0, 1.6670468480659893E9, 0.0, 2022-10-29 14:34:08.065
49.0, 11569.833040821366, 14204.573860105127, 9380.69943130808, 6246.081713996828, 0.01600000075995922, 0.01600000075995922, 0.9920000471174717, 0.0, 0.0, 0.0, 0.0, 0.0, 1.6670468480659893E9, 0.0, 2022-10-29 14:34:08.065
50.0, 11702.655587747693, 14321.767365116626, 9361.762447882444, 6322.4018523925915, 0.01600000075995922, 0.01600000075995922, 1.008000047877431, 0.0, 0.0, 0.0, 0.0, 0.0, 1.667046848081739E9, 0.0, 2022-10-29 14:34:08.081
50.0, 11716.036949789152, 14156.877046020236, 9218.215737833176, 6311.9095630669035, 0.01600000075995922, 0.01600000075995922, 1.008000047877431, 0.0, 0.0, 0.0, 0.0, 0.0, 1.667046848081739E9, 0.0, 2022-10-29 14:34:08.081
51.0, 11544.001551827416, 13945.090251429472, 9088.183156273793, 6167.77755867457, 0.01600000075995922, 0.01600000075995922, 1.008000047877431, 0.0, 0.0, 0.0, 0.0, 0.0, 1.6670468480823731E9, 0.0, 2022-10-29 14:34:08.082
51.0, 11614.53419504175, 13762.837446788792, 8920.594499359373, 6287.463707006536, 0.01600000075995922, 0.01600000075995922, 1.008000047877431, 0.0, 0.0, 0.0, 0.0, 0.0, 1.6670468480823731E9, 0.0, 2022-10-29 14:34:08.082
52.0, 11676.650193405803, 13802.738439416047, 8855.237877683714, 6304.023984010331, 0.01600000075995922, 0.01600000075995922, 1.008000047877431, 0.0, 0.0, 0.0, 0.0, 0.0, 1.6670468480961332E9, 0.0, 2022-10-29 14:34:08.096
52.0, 11639.327861797996, 13596.634422807954, 8661.45683142962, 6271.103514650371, 0.01600000075995922, 0.01600000075995922, 1.008000047877431, 0.0, 0.0, 0.0, 0.0, 0.0, 1.6670468480961332E9, 0.0, 2022-10-29 14:34:08.096
53.0, 11511.90199050773, 13424.011860553175, 8586.688751515467, 6139.331879611593, 0.01600000075995922, 0.01600000075995922, 1.008000047877431, 0.0, 0.0, 0.0, 0.0, 0.0, 1.6670468481116736E9, 0.0, 2022-10-29 14:34:08.111
53.0, 11580.220612948295, 13256.879471433349, 8413.654800265562, 6258.6739571476355, 0.01600000075995922, 0.01600000075995922, 1.008000047877431, 0.0, 0.0, 0.0, 0.0, 0.0, 1.6670468481116736E9, 0.0, 2022-10-29 14:34:08.111
54.0, 11650.575610914733, 13290.860202430747, 8340.863257477991, 6292.617289145477, 0.01600000075995922, 0.01600000075995922, 1.008000047877431, 0.0, 0.0, 0.0, 0.0, 0.0, 1.6670468481124408E9, 0.0, 2022-10-29 14:34:08.112
54.0, 11646.089600917883, 13127.252669019159, 8187.959317739587, 6275.464237998705, 0.01600000075995922, 0.01600000075995922, 1.008000047877431, 0.0, 0.0, 0.0, 0.0, 0.0, 1.6670468481124408E9, 0.0, 2022-10-29 14:34:08.112
55.0, 11567.540482148528, 12989.186782354955, 8113.554008121137, 6162.317304739263, 0.01600000075995922, 0.01600000075995922, 1.008000047877431, 0.0, 0.0, 0.0, 0.0, 0.0, 1.6670468481261213E9, 0.0, 2022-10-29 14:34:08.126
55.0, 11592.558542902116, 12767.377055882942, 7923.791484369431, 6287.6432222044095, 0.01600000075995922, 0.01600000075995922, 1.008000047877431, 0.0, 0.0, 0.0, 0.0, 0.0, 1.6670468481261213E9, 0.0, 2022-10-29 14:34:08.126
56.0, 11644.602990685496, 12795.471184350085, 7850.2482216907665, 6293.817797031254, 0.01600000075995922, 0.01600000075995922, 1.008000047877431, 0.0, 0.0, 0.0, 0.0, 0.0, 1.6670468481416717E9, 0.0, 2022-10-29 14:34:08.141
56.0, 11633.355241568759, 12615.636225030757, 7695.8371022702195, 6298.189740079455, 0.01600000075995922, 0.01600000075995922, 1.008000047877431, 0.0, 0.0, 0.0, 0.0, 0.0, 1.6670468481416717E9, 0.0, 2022-10-29 14:34:08.141
57.0, 11583.521074659191, 12519.326321371831, 7640.359426327515, 6170.453457092866, 0.01600000075995922, 0.01600000075995922, 1.008000047877431, 0.0, 0.0, 0.0, 0.0, 0.0, 1.667046848142344E9, 0.0, 2022-10-29 14:34:08.142
57.0, 11574.171324769966, 12742.772254074458, 7410.8941246462055, 6253.739159156103, 0.01600000075995922, 0.01600000075995922, 1.008000047877431, 0.0, 0.0, 0.0, 0.0, 0.0, 1.667046848142344E9, 0.0, 2022-10-29 14:34:08.142
58.0, 11610.033225445077, 12765.761419102084, 7328.386321773753, 6272.853787829634, 0.01600000075995922, 0.01600000075995922, 1.008000047877431, 0.0, 0.0, 0.0, 0.0, 0.0, 1.66704684815604E9, 0.0, 2022-10-29 14:34:08.156
58.0, 11602.443098485004, 12581.797610231675, 7177.505667911377, 6269.740321116522, 0.01600000075995922, 0.01600000075995922, 1.008000047877431, 0.0, 0.0, 0.0, 0.0, 0.0, 1.66704684815604E9, 0.0, 2022-10-29 14:34:08.156
59.0, 11555.413856542204, 12486.265605763532, 7134.160227424931, 6149.554896140471, 0.01600000075995922, 0.01600000075995922, 1.008000047877431, 0.0, 0.0, 0.0, 0.0, 0.0, 1.6670468481717796E9, 0.0, 2022-10-29 14:34:08.171
59.0, 11551.965668783057, 12255.693293695338, 6908.461004999001, 6244.606323464308, 0.01600000075995922, 0.01600000075995922, 1.008000047877431, 0.0, 0.0, 0.0, 0.0, 0.0, 1.6670468481717796E9, 0.0, 2022-10-29 14:34:08.171
60.0, 11592.049916508142, 12250.822074003052, 6823.79901975207, 6254.195426950697, 0.01600000075995922, 0.01600000075995922, 1.008000047877431, 0.0, 0.0, 0.0, 0.0, 0.0, 1.6670468481724148E9, 0.0, 2022-10-29 14:34:08.172
60.0, 11600.92843900295, 12076.855017714202, 6673.288615985308, 6251.773841729388, 0.01600000075995922, 0.01600000075995922, 1.008000047877431, 0.0, 0.0, 0.0, 0.0, 0.0, 1.6670468481724148E9, 0.0, 2022-10-29 14:34:08.172
61.0, 11515.879374110606, 11940.000858635642, 6628.465915016364, 6126.857443309389, 0.01600000075995922, 0.01600000075995922, 1.008000047877431, 0.0, 0.0, 0.0, 0.0, 0.0, 1.6670468481859784E9, 0.0, 2022-10-29 14:34:08.185
61.0, 11575.282075056806, 11772.176588024013, 6437.644999577198, 6248.503299218137, 0.01600000075995922, 0.01600000075995922, 1.008000047877431, 0.0, 0.0, 0.0, 0.0, 0.0, 1.6670468481859784E9, 0.0, 2022-10-29 14:34:08.185
62.0, 11612.224806819111, 11773.455633808859, 6336.605992424302, 6268.257450784091, 0.01600000075995922, 0.01600000075995922, 1.008000047877431, 0.0, 0.0, 0.0, 0.0, 0.0, 1.6670468482016191E9, 0.0, 2022-10-29 14:34:08.201
62.0, 11628.298896828666, 11621.767161556054, 6225.300959893037, 6271.4101864467375, 0.01600000075995922, 0.01600000075995922, 1.008000047877431, 0.0, 0.0, 0.0, 0.0, 0.0, 1.6670468482016191E9, 0.0, 2022-10-29 14:34:08.201
63.0, 11543.500405233353, 11468.939889766742, 6153.644476742018, 6137.888278228696, 0.01600000075995922, 0.01600000075995922, 1.008000047877431, 0.0, 0.0, 0.0, 0.0, 0.0, 1.6670468482023673E9, 0.0, 2022-10-29 14:34:08.202
63.0, 11561.876403665636, 11257.111956276465, 5929.407555198763, 6219.330209613778, 0.01600000075995922, 0.01600000075995922, 1.008000047877431, 0.0, 0.0, 0.0, 0.0, 0.0, 1.6670468482023673E9, 0.0, 2022-10-29 14:34:08.202
64.0, 11596.02543016104, 11270.03705052333, 5830.821922416799, 6248.5799671672285, 0.01600000075995922, 0.01600000075995922, 1.008000047877431, 0.0, 0.0, 0.0, 0.0, 0.0, 1.667046848215947E9, 0.0, 2022-10-29 14:34:08.215
64.0, 11612.39123236714, 11119.328432058915, 5705.103315456305, 6251.889778628014, 0.01600000075995922, 0.01600000075995922, 1.008000047877431, 0.0, 0.0, 0.0, 0.0, 0.0, 1.667046848215947E9, 0.0, 2022-10-29 14:34:08.215
65.0, 11595.546722966712, 11036.6317642387, 5701.004385104869, 6166.848193535581, 0.01600000075995922, 0.01600000075995922, 1.008000047877431, 0.0, 0.0, 0.0, 0.0, 0.0, 1.6670468482317412E9, 0.0, 2022-10-29 14:34:08.231
65.0, 11575.829970400315, 11255.851609991398, 5943.800560178235, 6226.789440075401, 0.01600000075995922, 0.01600000075995922, 1.008000047877431, 0.0, 0.0, 0.0, 0.0, 0.0, 1.6670468482317412E9, 0.0, 2022-10-29 14:34:08.231
66.0, 11595.165253171232, 11280.404053200502, 5838.094157880638, 6236.505700160284, 0.01600000075995922, 0.01600000075995922, 1.008000047877431, 0.0, 0.0, 0.0, 0.0, 0.0, 1.6670468482324133E9, 0.0, 2022-10-29 14:34:08.232
66.0, 11623.868985331152, 11122.914996116422, 5705.0939657064155, 6216.057797152549, 0.01600000075995922, 0.01600000075995922, 1.008000047877431, 0.0, 0.0, 0.0, 0.0, 0.0, 1.6670468482324133E9, 0.0, 2022-10-29 14:34:08.232
67.0, 11615.56640742952, 11047.077304814942, 5708.050356621388, 6166.489163139835, 0.01600000075995922, 0.01600000075995922, 1.008000047877431, 0.0, 0.0, 0.0, 0.0, 0.0, 1.667046848246022E9, 0.0, 2022-10-29 14:34:08.246
67.0, 11611.912525172811, 10806.317505267449, 5471.322169226129, 6239.5948575236835, 0.01600000075995922, 0.01600000075995922, 1.008000047877431, 0.0, 0.0, 0.0, 0.0, 0.0, 1.667046848246022E9, 0.0, 2022-10-29 14:34:08.246
68.0, 11560.8834602274, 10742.684977471363, 5330.464447245002, 6231.888793664984, 0.01600000075995922, 0.01600000075995922, 1.008000047877431, 0.0, 0.0, 0.0, 0.0, 0.0, 1.6670468482616754E9, 0.0, 2022-10-29 14:34:08.261
68.0, 11650.181051469408, 10653.168602081947, 5228.610141901765, 6180.235165426973, 0.01600000075995922, 0.01600000075995922, 1.008000047877431, 0.0, 0.0, 0.0, 0.0, 0.0, 1.6670468482616754E9, 0.0, 2022-10-29 14:34:08.261
69.0, 11722.923975557555, 10673.407070692163, 5285.59686747659, 6190.805992651731, 0.01600000075995922, 0.01600000075995922, 1.008000047877431, 0.0, 0.0, 0.0, 0.0, 0.0, 1.6670468482623749E9, 0.0, 2022-10-29 14:34:08.262
69.0, 11595.91323316237, 10780.216743476689, 5459.21611306956, 6256.416927524377, 0.01600000075995922, 0.01600000075995922, 1.008000047877431, 0.0, 0.0, 0.0, 0.0, 0.0, 1.6670468482623749E9, 0.0, 2022-10-29 14:34:08.262
70.0, 11668.882421197835, 10844.879613710567, 5367.403439107351, 6219.386308113113, 0.01600000075995922, 0.01600000075995922, 0.9920000471174717, 0.0, 0.0, 0.0, 0.0, 0.0, 1.667046848276077E9, 0.0, 2022-10-29 14:34:08.276
70.0, 11536.349716518074, 11018.205277157016, 5609.135612643324, 6156.628916906659, 0.01600000075995922, 0.01600000075995922, 0.9920000471174717, 0.0, 0.0, 0.0, 0.0, 0.0, 1.667046848276077E9, 0.0, 2022-10-29 14:34:08.276
71.0, 11412.544068384916, 10832.732418654487, 5388.10752526205, 6214.419720971957, 0.01600000075995922, 0.01600000075995922, 0.9920000471174717, 0.0, 0.0, 0.0, 0.0, 0.0, 1.6670468482916815E9, 0.0, 2022-10-29 14:34:08.291
71.0, 11414.524345411453, 10610.30186878983, 5326.1261632964015, 6228.689309252892, 0.01600000075995922, 0.01600000075995922, 0.9920000471174717, 0.0, 0.0, 0.0, 0.0, 0.0, 1.6670468482916815E9, 0.0, 2022-10-29 14:34:08.291
72.0, 11235.830055578612, 10407.376767144073, 5404.596744166687, 6212.789124591276, 0.01600000075995922, 0.01600000075995922, 0.9920000471174717, 0.0, 0.0, 0.0, 0.0, 0.0, 1.6670468482924795E9, 0.0, 2022-10-29 14:34:08.292
72.0, 11457.789378048852, 10445.811718988698, 5555.483007878996, 6138.808293617796, 0.01600000075995922, 0.01600000075995922, 0.9920000471174717, 0.0, 0.0, 0.0, 0.0, 0.0, 1.6670468482924795E9, 0.0, 2022-10-29 14:34:08.292
73.0, 11363.435442066751, 10311.511911579873, 5382.766948125325, 6225.112094945274, 0.01600000075995922, 0.01600000075995922, 0.9920000471174717, 0.0, 0.0, 0.0, 0.0, 0.0, 1.6670468483059938E9, 0.0, 2022-10-29 14:34:08.305
73.0, 11490.500413011294, 10195.541353853885, 5384.238598757889, 6266.967185299378, 0.01600000075995922, 0.01600000075995922, 0.9920000471174717, 0.0, 0.0, 0.0, 0.0, 0.0, 1.6670468483059938E9, 0.0, 2022-10-29 14:34:08.305
74.0, 11687.537042176817, 10376.35055711167, 5384.874381750356, 6210.945353913121, 0.01600000075995922, 0.01600000075995922, 0.9920000471174717, 0.0, 0.0, 0.0, 0.0, 0.0, 1.667046848321891E9, 0.0, 2022-10-29 14:34:08.321
74.0, 11929.654425408226, 10453.336397699546, 5546.138867839705, 6127.050048157107, 0.01600000075995922, 0.01600000075995922, 0.9920000471174717, 0.0, 0.0, 0.0, 0.0, 0.0, 1.667046848321891E9, 0.0, 2022-10-29 14:34:08.321
75.0, 11869.64025081927, 10334.841407503467, 5389.500637995545, 6238.26158318948, 0.01600000075995922, 0.01600000075995922, 0.9920000471174717, 0.0, 0.0, 0.0, 0.0, 0.0, 1.6670468483223617E9, 0.0, 2022-10-29 14:34:08.322
75.0, 11972.743682747707, 10166.789002994541, 5384.279737657402, 6255.657727833372, 0.01600000075995922, 0.01600000075995922, 0.9920000471174717, 0.0, 0.0, 0.0, 0.0, 0.0, 1.6670468483223617E9, 0.0, 2022-10-29 14:34:08.322
76.0, 12216.9217508547, 10397.058383166324, 5407.373619883787, 6206.569670964964, 0.01600000075995922, 0.01600000075995922, 0.9920000471174717, 0.0, 0.0, 0.0, 0.0, 0.0, 1.66704684833605E9, 0.0, 2022-10-29 14:34:08.336
76.0, 12418.5771564655, 10423.996882547159, 5531.687894410919, 6118.362260560039, 0.01600000075995922, 0.01600000075995922, 0.9920000471174717, 0.0, 0.0, 0.0, 0.0, 0.0, 1.66704684833605E9, 0.0, 2022-10-29 14:34:08.336
77.0, 12407.095663601533, 10376.38421621127, 5411.5510881342925, 6253.4642765093595, 0.01600000075995922, 0.01600000075995922, 0.9920000471174717, 0.0, 0.0, 0.0, 0.0, 0.0, 1.6670468483523664E9, 0.0, 2022-10-29 14:34:08.352
77.0, 12422.008514674846, 10164.451565522235, 5370.228933523875, 6276.025222992059, 0.01600000075995922, 0.01600000075995922, 0.9920000471174717, 0.0, 0.0, 0.0, 0.0, 0.0, 1.6670468483523664E9, 0.0, 2022-10-29 14:34:08.352
78.0, 12201.947191432118, 10382.813104235101, 5395.65651332261, 6193.098551324569, 0.01600000075995922, 0.01600000075995922, 0.9920000471174717, 0.0, 0.0, 0.0, 0.0, 0.0, 1.667046848353083E9, 0.0, 2022-10-29 14:34:08.353
78.0, 12377.37841855362, 10384.600776413921, 5541.243338797707, 6115.475057794247, 0.01600000075995922, 0.01600000075995922, 0.9920000471174717, 0.0, 0.0, 0.0, 0.0, 0.0, 1.667046848353083E9, 0.0, 2022-10-29 14:34:08.353
79.0, 12416.795094136614, 10392.92392376531, 5434.723508259747, 6255.214549688622, 0.01600000075995922, 0.01600000075995922, 0.9920000471174717, 0.0, 0.0, 0.0, 0.0, 0.0, 1.6670468483659997E9, 0.0, 2022-10-29 14:34:08.365
79.0, 12353.433709087316, 10571.764069696423, 5298.310657375958, 6220.7438917970285, 0.01600000075995922, 0.01600000075995922, 0.9920000471174717, 0.0, 0.0, 0.0, 0.0, 0.0, 1.6670468483659997E9, 0.0, 2022-10-29 14:34:08.365
80.0, 12588.733254699502, 10795.870094741229, 5329.06011481164, 6183.6571738864295, 0.01600000075995922, 0.01600000075995922, 1.008000047877431, 0.0, 0.0, 0.0, 0.0, 0.0, 1.667046848381666E9, 0.0, 2022-10-29 14:34:08.381
80.0, 12462.85757194087, 10997.80225294875, 5104.327656524256, 6130.084976971149, 0.01600000075995922, 0.01600000075995922, 1.008000047877431, 0.0, 0.0, 0.0, 0.0, 0.0, 1.667046848381666E9, 0.0, 2022-10-29 14:34:08.381
81.0, 12311.847891530022, 10780.540244822856, 4869.301123608835, 6247.961013724562, 0.01600000075995922, 0.01600000075995922, 1.008000047877431, 0.0, 0.0, 0.0, 0.0, 0.0, 1.6670468483824208E9, 0.0, 2022-10-29 14:34:08.382
81.0, 12410.366206112783, 10626.82287684409, 4829.673143678345, 6206.567801014986, 0.01600000075995922, 0.01600000075995922, 1.008000047877431, 0.0, 0.0, 0.0, 0.0, 0.0, 1.6670468483824208E9, 0.0, 2022-10-29 14:34:08.382
82.0, 12546.5995417987, 10748.111572307069, 4831.434636557475, 6178.670017295517, 0.01600000075995922, 0.01600000075995922, 1.008000047877431, 0.0, 0.0, 0.0, 0.0, 0.0, 1.6670468483960445E9, 0.0, 2022-10-29 14:34:08.396
82.0, 12545.756194358692, 10572.951487932354, 4676.851481738966, 6147.552179714199, 0.01600000075995922, 0.01600000075995922, 1.008000047877431, 0.0, 0.0, 0.0, 0.0, 0.0, 1.6670468483960445E9, 0.0, 2022-10-29 14:34:08.396
83.0, 12372.243535914458, 10363.827502110042, 4921.42036939133, 6263.019720896147, 0.01600000075995922, 0.01600000075995922, 1.008000047877431, 0.0, 0.0, 0.0, 0.0, 0.0, 1.667046848411663E9, 0.0, 2022-10-29 14:34:08.411
83.0, 12381.576456253882, 10602.831418628339, 4846.379276780412, 6218.384014924988, 0.01600000075995922, 0.01600000075995922, 1.008000047877431, 0.0, 0.0, 0.0, 0.0, 0.0, 1.667046848411663E9, 0.0, 2022-10-29 14:34:08.411
84.0, 12573.867152375635, 10783.30403089011, 4830.512751218397, 6166.045984995086, 0.01600000075995922, 0.01600000075995922, 1.008000047877431, 0.0, 0.0, 0.0, 0.0, 0.0, 1.6670468484123793E9, 0.0, 2022-10-29 14:34:08.412
84.0, 12476.900896274485, 11004.111464173999, 4626.9743059799075, 6120.398636085913, 0.01600000075995922, 0.01600000075995922, 1.008000047877431, 0.0, 0.0, 0.0, 0.0, 0.0, 1.6670468484123793E9, 0.0, 2022-10-29 14:34:08.412
85.0, 12341.183666782454, 10828.882191650104, 4391.222232473083, 6225.903083785903, 0.01600000075995922, 0.01600000075995922, 1.008000047877431, 0.0, 0.0, 0.0, 0.0, 0.0, 1.667046848426066E9, 0.0, 2022-10-29 14:34:08.426
85.0, 12322.86937669944, 11046.422822322696, 4301.0008859420195, 6192.786269678269, 0.01600000075995922, 0.01600000075995922, 1.008000047877431, 0.0, 0.0, 0.0, 0.0, 0.0, 1.667046848426066E9, 0.0, 2022-10-29 14:34:08.426
86.0, 12112.60659134062, 10808.948524886277, 4354.114945112728, 6176.538274320774, 0.01600000075995922, 0.01600000075995922, 1.008000047877431, 0.0, 0.0, 0.0, 0.0, 0.0, 1.6670468484415987E9, 0.0, 2022-10-29 14:34:08.441
86.0, 11974.647291825153, 10984.398451507557, 4128.791582632344, 6136.583053144161, 0.01600000075995922, 0.01600000075995922, 1.008000047877431, 0.0, 0.0, 0.0, 0.0, 0.0, 1.6670468484415987E9, 0.0, 2022-10-29 14:34:08.441
87.0, 11924.263359622099, 10893.758236181457, 3952.0738299260847, 6256.25798177626, 0.01600000075995922, 0.01600000075995922, 1.008000047877431, 0.0, 0.0, 0.0, 0.0, 0.0, 1.667046848442368E9, 0.0, 2022-10-29 14:34:08.442
87.0, 11774.641182094812, 10958.366877865978, 3756.9333300380968, 6166.3507868414745, 0.01600000075995922, 0.01600000075995922, 1.008000047877431, 0.0, 0.0, 0.0, 0.0, 0.0, 1.667046848442368E9, 0.0, 2022-10-29 14:34:08.442
88.0, 11632.769947225694, 10830.909217426088, 3880.5819023731165, 6166.878112735227, 0.01600000075995922, 0.01600000075995922, 1.008000047877431, 0.0, 0.0, 0.0, 0.0, 0.0, 1.6670468484560387E9, 0.0, 2022-10-29 14:34:08.456
88.0, 11452.747992908582, 10961.67107947683, 4119.815822738688, 6145.622391337063, 0.01600000075995922, 0.01600000075995922, 1.008000047877431, 0.0, 0.0, 0.0, 0.0, 0.0, 1.6670468484560387E9, 0.0, 2022-10-29 14:34:08.456
89.0, 11462.630678541493, 10914.671756733675, 3968.076861836482, 6236.761883307248, 0.01600000075995922, 0.01600000075995922, 1.008000047877431, 0.0, 0.0, 0.0, 0.0, 0.0, 1.6670468484716232E9, 0.0, 2022-10-29 14:34:08.471
89.0, 11226.889824734535, 10924.210371570662, 4207.308912252076, 6162.2855155896395, 0.01600000075995922, 0.01600000075995922, 1.008000047877431, 0.0, 0.0, 0.0, 0.0, 0.0, 1.6670468484716232E9, 0.0, 2022-10-29 14:34:08.471
90.0, 11174.15536540933, 10856.138582527172, 4374.6432559695095, 6166.066554444842, 0.01600000075995922, 0.01600000075995922, 0.9920000471174717, 0.0, 0.0, 0.0, 0.0, 0.0, 1.6670468484723465E9, 0.0, 2022-10-29 14:34:08.472
90.0, 11404.050755585544, 10924.32443851931, 4579.451397242956, 6115.643353292253, 0.01600000075995922, 0.01600000075995922, 0.9920000471174717, 0.0, 0.0, 0.0, 0.0, 0.0, 1.6670468484723465E9, 0.0, 2022-10-29 14:34:08.472
91.0, 11498.462660016958, 10966.370263771154, 4476.230158465914, 6236.182198814116, 0.01600000075995922, 0.01600000075995922, 0.9920000471174717, 0.0, 0.0, 0.0, 0.0, 0.0, 1.6670468484860733E9, 0.0, 2022-10-29 14:34:08.486
91.0, 11699.1438216893, 10904.710533201694, 4698.516722182278, 6164.521975763142, 0.01600000075995922, 0.01600000075995922, 0.9920000471174717, 0.0, 0.0, 0.0, 0.0, 0.0, 1.6670468484860733E9, 0.0, 2022-10-29 14:34:08.486
92.0, 11664.091609354597, 10867.448039993178, 4863.565987026785, 6152.29811275797, 0.01600000075995922, 0.01600000075995922, 0.9920000471174717, 0.0, 0.0, 0.0, 0.0, 0.0, 1.6670468485181491E9, 0.0, 2022-10-29 14:34:08.518
92.0, 11870.601405107882, 10892.927978391293, 5049.379176425282, 6110.7870931997895, 0.01600000075995922, 0.01600000075995922, 0.9920000471174717, 0.0, 0.0, 0.0, 0.0, 0.0, 1.6670468485181491E9, 0.0, 2022-10-29 14:34:08.518
93.0, 12061.248415199108, 11027.502668446861, 5038.5297266538255, 6284.439997892361, 0.01600000075995922, 0.01600000075995922, 0.9920000471174717, 0.0, 0.0, 0.0, 0.0, 0.0, 1.667046848518885E9, 0.0, 2022-10-29 14:34:08.518
93.0, 12211.960773563478, 10924.902253062464, 5207.044008807279, 6185.141914168838, 0.01600000075995922, 0.01600000075995922, 0.9920000471174717, 0.0, 0.0, 0.0, 0.0, 0.0, 1.667046848518885E9, 0.0, 2022-10-29 14:34:08.518
94.0, 12173.078903674148, 10882.504877214786, 5371.790341755375, 6166.54526163917, 0.01600000075995922, 0.01600000075995922, 0.9920000471174717, 0.0, 0.0, 0.0, 0.0, 0.0, 1.6670468485195372E9, 0.0, 2022-10-29 14:34:08.519
94.0, 12335.09510965459, 10866.832826450467, 5515.294042955153, 6103.118428340647, 0.01600000075995922, 0.01600000075995922, 0.9920000471174717, 0.0, 0.0, 0.0, 0.0, 0.0, 1.6670468485195372E9, 0.0, 2022-10-29 14:34:08.519
95.0, 12544.093808828387, 11033.518297525588, 5517.749287276063, 6276.573118335567, 0.01600000075995922, 0.01600000075995922, 0.9920000471174717, 0.0, 0.0, 0.0, 0.0, 0.0, 1.6670468485203311E9, 0.0, 2022-10-29 14:34:08.520
95.0, 12663.723858661018, 10878.880914157722, 5664.153280891478, 6173.407978057861, 0.01600000075995922, 0.01600000075995922, 0.9920000471174717, 0.0, 0.0, 0.0, 0.0, 0.0, 1.6670468485203311E9, 0.0, 2022-10-29 14:34:08.520
96.0, 12647.00089600915, 10849.460991156287, 5837.086254842579, 6150.884430574719, 0.01600000075995922, 0.01600000075995922, 0.9920000471174717, 0.0, 0.0, 0.0, 0.0, 0.0, 1.667046848531008E9, 0.0, 2022-10-29 14:34:08.531
96.0, 12803.347413656767, 10854.03114890214, 5996.817381950095, 6100.225615724921, 0.01600000075995922, 0.01600000075995922, 0.9920000471174717, 0.0, 0.0, 0.0, 0.0, 0.0, 1.667046848531008E9, 0.0, 2022-10-29 14:34:08.531
97.0, 12574.502935368102, 11049.091240941081, 6031.671379587147, 6271.664499643724, 0.01600000075995922, 0.01600000075995922, 0.9920000471174717, 0.0, 0.0, 0.0, 0.0, 0.0, 1.6670468485623744E9, 0.0, 2022-10-29 14:34:08.562
97.0, 12653.255878685042, 10886.244777170476, 6164.899705658667, 6159.553518672008, 0.01600000075995922, 0.01600000075995922, 0.9920000471174717, 0.0, 0.0, 0.0, 0.0, 0.0, 1.6670468485623744E9, 0.0, 2022-10-29 14:34:08.562
98.0, 12628.91847972339, 10860.733049622737, 6350.6119177583605, 6152.187785709277, 0.01600000075995922, 0.01600000075995922, 0.9920000471174717, 0.0, 0.0, 0.0, 0.0, 0.0, 1.6670468485631044E9, 0.0, 2022-10-29 14:34:08.563
98.0, 12799.555155101698, 10866.06614695955, 6503.15495715104, 6088.080290618818, 0.01600000075995922, 0.01600000075995922, 0.9920000471174717, 0.0, 0.0, 0.0, 0.0, 0.0, 1.6670468485631044E9, 0.0, 2022-10-29 14:34:08.563
99.0, 13030.376170516945, 11050.976150518749, 6523.075534265023, 6281.483606977388, 0.01600000075995922, 0.01600000075995922, 0.9920000471174717, 0.0, 0.0, 0.0, 0.0, 0.0, 1.6670468485638292E9, 0.0, 2022-10-29 14:34:08.563
99.0, 13128.53545470396, 10896.738936446141, 6653.704629867338, 6141.757204732858, 0.01600000075995922, 0.01600000075995922, 0.9920000471174717, 0.0, 0.0, 0.0, 0.0, 0.0, 1.6670468485638292E9, 0.0, 2022-10-29 14:34:08.563
100.0, 13072.637040016241, 10824.530818051659, 6806.528161756694, 6123.467223999556, 0.01600000075995922, 0.01600000075995922, 0.9920000471174717, 0.0, 0.0, 0.0, 0.0, 0.0, 1.6670468485767307E9, 0.0, 2022-10-29 14:34:08.576
100.0, 13279.51708586514, 10855.407432085834, 6974.255194969475, 6086.081314092502, 0.01600000075995922, 0.01600000075995922, 0.9920000471174717, 0.0, 0.0, 0.0, 0.0, 0.0, 1.6670468485767307E9, 0.0, 2022-10-29 14:34:08.576
0.0, -3610.9930840171874, -3643.535823481623, -2278.784621301107, -83.20155431423336, 0.01600000075995922, 0.01600000075995922, 0.9920000471174717, 0.0, 0.0, 0.0, 0.0, 0.0, 1.667046848577493E9, 0.0, 2022-10-29 14:34:08.577
1.0, -3476.567989959847, -3771.1299902698956, -2125.6562875653617, -190.0130970487371, 0.01600000075995922, 0.01600000075995922, 0.9920000471174717, 0.0, 0.0, 0.0, 0.0, 0.0, 1.6670468485910652E9, 0.0, 2022-10-29 14:34:08.591
1.0, -3594.664680810645, -3904.0853036446497, -2016.8999968538992, -224.58660218911245, 0.01600000075995922, 0.01600000075995922, 0.9920000471174717, 0.0, 0.0, 0.0, 0.0, 0.0, 1.6670468485910652E9, 0.0, 2022-10-29 14:34:08.591
2.0, -3791.7218794259243, -3769.1160541437566, -1797.4389275540598, -245.5618310905993, 0.01600000075995922, 0.01600000075995922, 0.9920000471174717, 0.0, 0.0, 0.0, 0.0, 0.0, 1.6670468486067607E9, 0.0, 2022-10-29 14:34:08.606
2.0, -3600.973892035894, -3633.984118994791, -1787.8741334173828, -53.62455551465973, 0.01600000075995922, 0.01600000075995922, 0.9920000471174717, 0.0, 0.0, 0.0, 0.0, 0.0, 1.6670468486067607E9, 0.0, 2022-10-29 14:34:08.606
3.0, -3450.882357064169, -3737.224057271611, -1633.8968423916958, -182.83435908379033, 0.01600000075995922, 0.01600000075995922, 0.9920000471174717, 0.0, 0.0, 0.0, 0.0, 0.0, 1.6670468486074336E9, 0.0, 2022-10-29 14:34:08.607
3.0, -3604.530536893755, -3917.4629257861525, -1542.3889702758752, -226.3350054183975, 0.01600000075995922, 0.01600000075995922, 0.9920000471174717, 0.0, 0.0, 0.0, 0.0, 0.0, 1.6670468486074336E9, 0.0, 2022-10-29 14:34:08.607
4.0, -3787.903441571165, -3775.5561618674546, -1302.6726028160192, -268.9567752634175, 0.01600000075995922, 0.01600000075995922, 0.9920000471174717, 0.0, 0.0, 0.0, 0.0, 0.0, 1.667046848621138E9, 0.0, 2022-10-29 14:34:08.621
4.0, -3600.166073645465, -3635.3791016782634, -1321.5104788928293, -77.57674478087574, 0.01600000075995922, 0.01600000075995922, 0.9920000471174717, 0.0, 0.0, 0.0, 0.0, 0.0, 1.667046848621138E9, 0.0, 2022-10-29 14:34:08.621
5.0, -3465.0453581963666, -3753.081233083736, -1155.9245384046808, -205.77303546201438, 0.01600000075995922, 0.01600000075995922, 0.9920000471174717, 0.0, 0.0, 0.0, 0.0, 0.0, 1.6670468486367688E9, 0.0, 2022-10-29 14:34:08.636
5.0, -3629.2662352006882, -3940.5119292130694, -1071.2345039080828, -259.15449747955427, 0.01600000075995922, 0.01600000075995922, 0.9920000471174717, 0.0, 0.0, 0.0, 0.0, 0.0, 1.6670468486367688E9, 0.0, 2022-10-29 14:34:08.636
6.0, -3832.5690667419694, -3816.193914785981, -851.1787905152887, -277.272442814894, 0.01600000075995922, 0.01600000075995922, 0.9920000471174717, 0.0, 0.0, 0.0, 0.0, 0.0, 1.667046848637392E9, 0.0, 2022-10-29 14:34:08.637
6.0, -3589.2493056748062, -3628.220933163073, -799.8168744738214, -75.81338195176795, 0.01600000075995922, 0.01600000075995922, 0.9920000471174717, 0.0, 0.0, 0.0, 0.0, 0.0, 1.667046848637392E9, 0.0, 2022-10-29 14:34:08.637
7.0, -3476.7063662582077, -3783.4118217243813, -662.4372594514862, -181.74978809664026, 0.01600000075995922, 0.01600000075995922, 0.9920000471174717, 0.0, 0.0, 0.0, 0.0, 0.0, 1.6670468486510377E9, 0.0, 2022-10-29 14:34:08.651
7.0, -3612.575061698444, -3926.1955921826884, -568.2142199678347, -245.62540938984603, 0.01600000075995922, 0.01600000075995922, 0.9920000471174717, 0.0, 0.0, 0.0, 0.0, 0.0, 1.6670468486510377E9, 0.0, 2022-10-29 14:34:08.651
8.0, -3403.5483132749796, -3883.62431098707, -411.0037854304537, -312.6425466458313, 0.01600000075995922, 0.01600000075995922, 0.9920000471174717, 0.0, 0.0, 0.0, 0.0, 0.0, 1.66704684866667E9, 0.0, 2022-10-29 14:34:08.666
8.0, -3572.9059428684413, -4113.456122864038, -305.63397412886843, -99.5262176208198, 0.01600000075995922, 0.01600000075995922, 0.9920000471174717, 0.0, 0.0, 0.0, 0.0, 0.0, 1.66704684866667E9, 0.0, 2022-10-29 14:34:08.666
9.0, -3542.0498982840218, -4329.992590398528, -234.2935125241056, -256.1532277651131, 0.01600000075995922, 0.01600000075995922, 0.9920000471174717, 0.0, 0.0, 0.0, 0.0, 0.0, 1.667046848667425E9, 0.0, 2022-10-29 14:34:08.667
9.0, -3654.9668276961893, -4452.767896093894, -137.43010367173702, -307.36928770830855, 0.01600000075995922, 0.01600000075995922, 0.9920000471174717, 0.0, 0.0, 0.0, 0.0, 0.0, 1.667046848667425E9, 0.0, 2022-10-29 14:34:08.667
10.0, -3490.029759850353, -4460.316884154454, -4.674874944612384, -350.21919145062566, 0.01600000075995922, 0.01600000075995922, 0.9920000471174717, 0.0, 0.0, 0.0, 0.0, 0.0, 1.667046848681092E9, 0.0, 2022-10-29 14:34:08.681
10.0, -3617.4668508404866, -4645.883240155876, 155.44333180831745, -586.0273634567857, 0.01600000075995922, 0.01600000075995922, 0.9920000471174717, 0.0, 0.0, 0.0, 0.0, 0.0, 1.667046848681092E9, 0.0, 2022-10-29 14:34:08.681
11.0, -3518.286573965568, -4811.7665026905015, 278.8432007962838, -734.1573209017515, 0.01600000075995922, 0.01600000075995922, 0.9920000471174717, 0.0, 0.0, 0.0, 0.0, 0.0, 1.6670468486967244E9, 0.0, 2022-10-29 14:34:08.696
11.0, -3748.2885512905195, -5045.8748901668005, 293.08099992759526, -819.7206220380031, 0.01600000075995922, 0.01600000075995922, 0.9920000471174717, 0.0, 0.0, 0.0, 0.0, 0.0, 1.6670468486967244E9, 0.0, 2022-10-29 14:34:08.696
12.0, -3948.7827179650776, -4921.960784934927, 528.8255936345086, -864.4816146576777, 0.01600000075995922, 0.01600000075995922, 0.9920000471174717, 0.0, 0.0, 0.0, 0.0, 0.0, 1.667046848697409E9, 0.0, 2022-10-29 14:34:08.697
12.0, -4121.5399166182615, -5151.31014971761, 637.7333502941765, -1047.2879244918004, 0.01600000075995922, 0.01600000075995922, 0.9920000471174717, 0.0, 0.0, 0.0, 0.0, 0.0, 1.667046848697409E9, 0.0, 2022-10-29 14:34:08.697
13.0, -3901.1345225796103, -5175.204370534513, 863.4905411694199, -1163.5427146144211, 0.01600000075995922, 0.01600000075995922, 0.9920000471174717, 0.0, 0.0, 0.0, 0.0, 0.0, 1.6670468487110746E9, 0.0, 2022-10-29 14:34:08.711
13.0, -3741.7175470683724, -5033.477121813688, 796.1143735176884, -1278.625046100933, 0.01600000075995922, 0.01600000075995922, 0.9920000471174717, 0.0, 0.0, 0.0, 0.0, 0.0, 1.6670468487110746E9, 0.0, 2022-10-29 14:34:08.711
14.0, -3895.5003632963635, -4877.579392160755, 1039.2303100372665, -1343.3159655844793, 0.01600000075995922, 0.01600000075995922, 0.9920000471174717, 0.0, 0.0, 0.0, 0.0, 0.0, 1.6670468487266529E9, 0.0, 2022-10-29 14:34:08.726
14.0, -4082.4617019812576, -4633.582709201612, 1154.522075921297, -1518.945407403633, 0.01600000075995922, 0.01600000075995922, 0.9920000471174717, 0.0, 0.0, 0.0, 0.0, 0.0, 1.6670468487266529E9, 0.0, 2022-10-29 14:34:08.726
15.0, -4320.970081755426, -4631.950242870953, 1377.8109328257851, -1620.2518174033612, 0.01600000075995922, 0.01600000075995922, 0.9920000471174717, 0.0, 0.0, 0.0, 0.0, 0.0, 1.6670468487274635E9, 0.0, 2022-10-29 14:34:08.727
15.0, -4200.358308184426, -4524.671212641988, 1307.932772103697, -1770.5340872728266, 0.01600000075995922, 0.01600000075995922, 0.9920000471174717, 0.0, 0.0, 0.0, 0.0, 0.0, 1.6670468487274635E9, 0.0, 2022-10-29 14:34:08.727
16.0, -4405.564748803154, -4395.23327517556, 1509.5432989150286, -1859.7699701655656, 0.01600000075995922, 0.01600000075995922, 0.9920000471174717, 0.0, 0.0, 0.0, 0.0, 0.0, 1.667046848741021E9, 0.0, 2022-10-29 14:34:08.741
16.0, -4526.176522374153, -4582.998692350928, 1669.5867076688446, -2018.4277459857985, 0.01600000075995922, 0.01600000075995922, 0.9920000471174717, 0.0, 0.0, 0.0, 0.0, 0.0, 1.667046848741021E9, 0.0, 2022-10-29 14:34:08.741
17.0, -4369.64487967873, -4680.512843795586, 1851.1607204675674, -2119.0385345937684, 0.01600000075995922, 0.01600000075995922, 0.9920000471174717, 0.0, 0.0, 0.0, 0.0, 0.0, 1.6670468487567236E9, 0.0, 2022-10-29 14:34:08.756
17.0, -4220.4004320469685, -4539.615852864925, 1774.689116123598, -2277.458826766815, 0.01600000075995922, 0.01600000075995922, 0.9920000471174717, 0.0, 0.0, 0.0, 0.0, 0.0, 1.6670468487567236E9, 0.0, 2022-10-29 14:34:08.756
18.0, -4441.800639473833, -4440.572082338389, 1968.1466610315256, -2352.5317085273564, 0.01600000075995922, 0.01600000075995922, 0.9920000471174717, 0.0, 0.0, 0.0, 0.0, 0.0, 1.667046848757403E9, 0.0, 2022-10-29 14:34:08.757
18.0, -4537.680454637855, -4594.854175210465, 2156.1458219541237, -2500.5719083733857, 0.01600000075995922, 0.01600000075995922, 0.9920000471174717, 0.0, 0.0, 0.0, 0.0, 0.0, 1.667046848757403E9, 0.0, 2022-10-29 14:34:08.757
19.0, -4365.355214429554, -4688.0150831067, 2321.043620850425, -2617.301665790379, 0.01600000075995922, 0.01600000075995922, 0.9920000471174717, 0.0, 0.0, 0.0, 0.0, 0.0, 1.667046848771E9, 0.0, 2022-10-29 14:34:08.771
19.0, -4241.553306196351, -4561.886957101058, 2246.6775801815093, -2780.879280002322, 0.01600000075995922, 0.01600000075995922, 0.9920000471174717, 0.0, 0.0, 0.0, 0.0, 0.0, 1.667046848771E9, 0.0, 2022-10-29 14:34:08.771
20.0, -4006.0854650861584, -4483.420116130728, 2402.167660739273, -2909.0774406334385, 0.01600000075995922, 0.01600000075995922, 0.9920000471174717, 0.0, 0.0, 0.0, 0.0, 0.0, 1.6670468487866848E9, 0.0, 2022-10-29 14:34:08.786
20.0, -4036.5880891247652, -4572.837384171318, 2641.437110154424, -2999.889691357501, 0.01600000075995922, 0.01600000075995922, 0.9920000471174717, 0.0, 0.0, 0.0, 0.0, 0.0, 1.6670468487866848E9, 0.0, 2022-10-29 14:34:08.786
21.0, -3900.4202016880736, -4694.204617533367, 2797.501265355386, -3129.8848739173263, 0.01600000075995922, 0.01600000075995922, 0.9920000471174717, 0.0, 0.0, 0.0, 0.0, 0.0, 1.667046848787485E9, 0.0, 2022-10-29 14:34:08.787
21.0, -3718.61244514212, -4549.915537342895, 2752.5532777379267, -3271.4382172902115, 0.01600000075995922, 0.01600000075995922, 0.9920000471174717, 0.0, 0.0, 0.0, 0.0, 0.0, 1.667046848787485E9, 0.0, 2022-10-29 14:34:08.787
22.0, -3554.1166854910553, -4549.713582745288, 2877.5145549573936, -3379.5493752593175, 0.0, 0.01600000075995922, 0.9920000471174717, 0.0, 0.0, 0.0, 0.0, 0.0, 1.6670468488009875E9, 0.0, 2022-10-29 14:34:08.800
22.0, -3493.4124993602745, -4528.446641647257, 2684.6516541424207, -3453.2628033859655, 0.0, 0.01600000075995922, 0.9920000471174717, 0.0, 0.0, 0.0, 0.0, 0.0, 1.6670468488009875E9, 0.0, 2022-10-29 14:34:08.800
23.0, -3405.837132047862, -4721.997684054077, 2805.0670829657465, -3582.7717989515513, 0.0, 0.01600000075995922, 0.9920000471174717, 0.0, 0.0, 0.0, 0.0, 0.0, 1.6670468488166611E9, 0.0, 2022-10-29 14:34:08.816
23.0, -3199.1964397961274, -4519.4783615535125, 2761.00171173783, -3744.5243419851176, 0.0, 0.01600000075995922, 0.9920000471174717, 0.0, 0.0, 0.0, 0.0, 0.0, 1.6670468488166611E9, 0.0, 2022-10-29 14:34:08.816
24.0, -3071.766828605905, -4552.447449612897, 2880.102565726731, -3826.4412406645715, 0.0, 0.01600000075995922, 0.9920000471174717, 0.0, 0.0, 0.0, 0.0, 0.0, 1.6670468488173797E9, 0.0, 2022-10-29 14:34:08.817
24.0, -2942.5925540863536, -4479.723225024529, 2725.966328952927, -3924.703372100368, 0.0, 0.01600000075995922, 0.9920000471174717, 0.0, 0.0, 0.0, 0.0, 0.0, 1.6670468488173797E9, 0.0, 2022-10-29 14:34:08.817
25.0, -2964.287713729311, -4283.036276504863, 2760.0723465988412, -4105.134845462628, 0.0, 0.01600000075995922, 0.9920000471174717, 0.0, 0.0, 0.0, 0.0, 0.0, 1.6670468488309875E9, 0.0, 2022-10-29 14:34:08.830
25.0, -2773.0815885947086, -4099.691421077121, 2718.4266906422563, -4242.443402385805, 0.0, 0.01600000075995922, 0.9920000471174717, 0.0, 0.0, 0.0, 0.0, 0.0, 1.6670468488309875E9, 0.0, 2022-10-29 14:34:08.830
26.0, -2548.66515185358, -4040.9488124730997, 2891.774793488439, -4325.691705449484, 0.0, 0.01600000075995922, 0.9920000471174717, 0.0, 0.0, 0.0, 0.0, 0.0, 1.6670468488466847E9, 0.0, 2022-10-29 14:34:08.846
26.0, -2560.5542938127182, -4106.901948191691, 2652.8961636186577, -4437.668050022796, 0.0, 0.01600000075995922, 0.9920000471174717, 0.0, 0.0, 0.0, 0.0, 0.0, 1.6670468488466847E9, 0.0, 2022-10-29 14:34:08.846
27.0, -2410.2533244434744, -4210.553275463637, 2791.6408421248198, -4587.189250251278, 0.0, 0.01600000075995922, 0.9920000471174717, 0.0, 0.0, 0.0, 0.0, 0.0, 1.6670468488473637E9, 0.0, 2022-10-29 14:34:08.847
27.0, -2380.853970891796, -4206.502963811625, 2670.5410116096027, -4745.2766913282685, 0.0, 0.01600000075995922, 0.9920000471174717, 0.0, 0.0, 0.0, 0.0, 0.0, 1.6670468488473637E9, 0.0, 2022-10-29 14:34:08.847
28.0, -2419.4329088847153, -4410.841747640632, 2493.017310462892, -4793.340015608817, 0.0, 0.01600000075995922, 0.9920000471174717, 0.0, 0.0, 0.0, 0.0, 0.0, 1.6670468488610315E9, 0.0, 2022-10-29 14:34:08.861
28.0, -2506.3743631546386, -4548.634621608071, 2696.0172101077624, -4899.340000052936, 0.0, 0.01600000075995922, 0.9920000471174717, 0.0, 0.0, 0.0, 0.0, 0.0, 1.6670468488610315E9, 0.0, 2022-10-29 14:34:08.861
29.0, -2307.1442826651037, -4606.666649220511, 2889.1026349700987, -5038.247364207171, 0.0, 0.01600000075995922, 0.9920000471174717, 0.0, 0.0, 0.0, 0.0, 0.0, 1.6670468488766956E9, 0.0, 2022-10-29 14:34:08.876
29.0, -2323.979442315642, -4629.76614129683, 2705.0976872001775, -5215.752365854103, 0.0, 0.01600000075995922, 0.9920000471174717, 0.0, 0.0, 0.0, 0.0, 0.0, 1.6670468488766956E9, 0.0, 2022-10-29 14:34:08.876
30.0, -2431.350100093521, -4406.337038144004, 2485.892801047303, -5278.348941362463, 0.0, 0.01600000075995922, 0.9920000471174717, 0.0, 0.0, 0.0, 0.0, 0.0, 1.6670468488775747E9, 0.0, 2022-10-29 14:34:08.877
30.0, -2444.750161634758, -4483.7305278270505, 2249.056156553328, -5387.733535266481, 0.0, 0.01600000075995922, 0.9920000471174717, 0.0, 0.0, 0.0, 0.0, 0.0, 1.6670468488775747E9, 0.0, 2022-10-29 14:34:08.877
31.0, -2361.281204473693, -4647.942055081483, 2353.588230264839, -5561.5603453069925, 0.0, 0.01600000075995922, 0.9920000471174717, 0.0, 0.0, 0.0, 0.0, 0.0, 1.6670468488909643E9, 0.0, 2022-10-29 14:34:08.890
31.0, -2278.281604757067, -4573.439508064184, 2238.3301234804094, -5723.660699036438, 0.0, 0.01600000075995922, 0.9920000471174717, 0.0, 0.0, 0.0, 0.0, 0.0, 1.6670468488909643E9, 0.0, 2022-10-29 14:34:08.890
32.0, -2037.9780730041675, -4516.884740934242, 2411.17707973253, -5804.852057124488, 0.01600000075995922, 0.01600000075995922, 0.9920000471174717, 0.0, 0.0, 0.0, 0.0, 0.0, 1.6670468489071977E9, 0.0, 2022-10-29 14:34:08.907
32.0, -1922.7611051192507, -4441.527626777068, 2263.0059833880514, -5890.656581807882, 0.01600000075995922, 0.01600000075995922, 0.9920000471174717, 0.0, 0.0, 0.0, 0.0, 0.0, 1.6670468489071977E9, 0.0, 2022-10-29 14:34:08.907
33.0, -1930.4465995281935, -4218.2537294724025, 2314.6334323263727, -6071.282529967837, 0.01600000075995922, 0.01600000075995922, 0.9920000471174717, 0.0, 0.0, 0.0, 0.0, 0.0, 1.6670468489217148E9, 0.0, 2022-10-29 14:34:08.921
33.0, -1765.5693700816482, -4058.466503865551, 2247.3993808729574, -6218.830932969693, 0.01600000075995922, 0.01600000075995922, 0.9920000471174717, 0.0, 0.0, 0.0, 0.0, 0.0, 1.6670468489217148E9, 0.0, 2022-10-29 14:34:08.921
34.0, -1644.1722175199538, -4098.118793145753, 2355.602166390978, -6314.806115582585, 0.01600000075995922, 0.01600000075995922, 0.9920000471174717, 0.0, 0.0, 0.0, 0.0, 0.0, 1.6670468489223711E9, 0.0, 2022-10-29 14:34:08.922
34.0, -1792.5452684620395, -4303.899308407679, 2345.63907290902, -6354.78564610891, 0.01600000075995922, 0.01600000075995922, 0.9920000471174717, 0.0, 0.0, 0.0, 0.0, 0.0, 1.6670468489223711E9, 0.0, 2022-10-29 14:34:08.922
35.0, -1951.5545948781073, -4214.0201627225615, 2305.135956388898, -6481.837527403608, 0.01600000075995922, 0.01600000075995922, 0.9920000471174717, 0.0, 0.0, 0.0, 0.0, 0.0, 1.6670468489369545E9, 0.0, 2022-10-29 14:34:08.936
35.0, -1869.7929020468146, -4157.98524168646, 2178.50107393926, -6726.092263459694, 0.01600000075995922, 0.01600000075995922, 0.9920000471174717, 0.0, 0.0, 0.0, 0.0, 0.0, 1.6670468489369545E9, 0.0, 2022-10-29 14:34:08.936
36.0, -2113.808284505736, -4088.6138374083675, 2369.7408581734635, -6788.262490373105, 0.01600000075995922, 0.01600000075995922, 0.9920000471174717, 0.0, 0.0, 0.0, 0.0, 0.0, 1.6670468489376516E9, 0.0, 2022-10-29 14:34:08.937
36.0, -1939.6130943195894, -3967.9702746877447, 2274.3771492033266, -6848.115849263966, 0.01600000075995922, 0.01600000075995922, 0.9920000471174717, 0.0, 0.0, 0.0, 0.0, 0.0, 1.6670468489376516E9, 0.0, 2022-10-29 14:34:08.937
37.0, -1865.3068920499645, -4141.5839104307815, 2346.6226665973663, -6995.8531172135845, 0.01600000075995922, 0.01600000075995922, 0.9920000471174717, 0.0, 0.0, 0.0, 0.0, 0.0, 1.667046848951023E9, 0.0, 2022-10-29 14:34:08.951
37.0, -1888.9561494197696, -4165.453821897972, 2173.556926197838, -7192.8504774295725, 0.01600000075995922, 0.01600000075995922, 0.9920000471174717, 0.0, 0.0, 0.0, 0.0, 0.0, 1.667046848951023E9, 0.0, 2022-10-29 14:34:08.951
38.0, -2063.962897896301, -4009.5598321449943, 2413.0488996603526, -7266.707891704515, 0.01600000075995922, 0.01600000075995922, 0.9920000471174717, 0.0, 0.0, 0.0, 0.0, 0.0, 1.667046848966732E9, 0.0, 2022-10-29 14:34:08.966
38.0, -1955.6572651294991, -3975.106003803201, 2272.6642750236206, -7326.134902000427, 0.01600000075995922, 0.01600000075995922, 0.9920000471174717, 0.0, 0.0, 0.0, 0.0, 0.0, 1.667046848966732E9, 0.0, 2022-10-29 14:34:08.966
39.0, -1788.8820364554413, -4066.221186423674, 2433.8520931638777, -7463.953955267556, 0.01600000075995922, 0.01600000075995922, 0.9920000471174717, 0.0, 0.0, 0.0, 0.0, 0.0, 1.667046848967476E9, 0.0, 2022-10-29 14:34:08.967
39.0, -1909.2413667794317, -4190.881401696708, 2670.6401189584285, -7690.720919130836, 0.01600000075995922, 0.01600000075995922, 0.9920000471174717, 0.0, 0.0, 0.0, 0.0, 0.0, 1.667046848967476E9, 0.0, 2022-10-29 14:34:08.967
40.0, -2052.769377328921, -4028.607142619323, 2913.703696878627, -7776.422596565448, 0.01600000075995922, 0.01600000075995922, 0.9920000471174717, 0.0, 0.0, 0.0, 0.0, 0.0, 1.6670468489810047E9, 0.0, 2022-10-29 14:34:08.981
40.0, -1913.2206203322858, -3942.049028094858, 2780.7764327535406, -7825.774316380732, 0.01600000075995922, 0.01600000075995922, 0.9920000471174717, 0.0, 0.0, 0.0, 0.0, 0.0, 1.6670468489810047E9, 0.0, 2022-10-29 14:34:08.981
41.0, -1844.049300701823, -4094.326534590684, 2889.1306842197664, -8001.396278399974, 0.01600000075995922, 0.01600000075995922, 0.9920000471174717, 0.0, 0.0, 0.0, 0.0, 0.0, 1.667046848996634E9, 0.0, 2022-10-29 14:34:08.996
41.0, -1885.3770651621744, -4163.666149719153, 2676.010615294799, -8186.040749062318, 0.01600000075995922, 0.01600000075995922, 0.9920000471174717, 0.0, 0.0, 0.0, 0.0, 0.0, 1.667046848996634E9, 0.0, 2022-10-29 14:34:08.996
42.0, -2124.769931275863, -4092.8698435579427, 2878.15968769975, -8257.422349566594, 0.01600000075995922, 0.01600000075995922, 0.9920000471174717, 0.0, 0.0, 0.0, 0.0, 0.0, 1.6670468489974778E9, 0.0, 2022-10-29 14:34:08.997
42.0, -2357.937733913306, -3865.3100209040567, 2817.7453438155353, -8283.003265263513, 0.01600000075995922, 0.01600000075995922, 0.9920000471174717, 0.0, 0.0, 0.0, 0.0, 0.0, 1.6670468489974778E9, 0.0, 2022-10-29 14:34:08.997
43.0, -2374.232478020247, -3676.4693824914284, 2855.8754938137718, -8474.654438492842, 0.01600000075995922, 0.01600000075995922, 0.9920000471174717, 0.0, 0.0, 0.0, 0.0, 0.0, 1.6670468490110407E9, 0.0, 2022-10-29 14:34:09.011
43.0, -2346.1009505535476, -3640.9478127122857, 2703.293185471557, -8663.558655204717, 0.01600000075995922, 0.01600000075995922, 0.9920000471174717, 0.0, 0.0, 0.0, 0.0, 0.0, 1.6670468490110407E9, 0.0, 2022-10-29 14:34:09.011
44.0, -2187.25617973553, -3647.7974394811317, 2850.009460733272, -8747.439001360908, 0.01600000075995922, 0.01600000075995922, 0.9920000471174717, 0.0, 0.0, 0.0, 0.0, 0.0, 1.667046849026777E9, 0.0, 2022-10-29 14:34:09.026
44.0, -2285.1854600752704, -3809.1928220689297, 2883.8985641817562, -8753.808050985448, 0.01600000075995922, 0.01600000075995922, 0.9920000471174717, 0.0, 0.0, 0.0, 0.0, 0.0, 1.667046849026777E9, 0.0, 2022-10-29 14:34:09.026
45.0, -2420.207068175543, -3716.7967237136327, 2820.8214115290903, -8961.11070552934, 0.01600000075995922, 0.01600000075995922, 0.9920000471174717, 0.0, 0.0, 0.0, 0.0, 0.0, 1.6670468490274708E9, 0.0, 2022-10-29 14:34:09.027
45.0, -2320.5574338561855, -3627.2859581741504, 2722.3105767462403, -9151.600639822427, 0.01600000075995922, 0.01600000075995922, 0.9920000471174717, 0.0, 0.0, 0.0, 0.0, 0.0, 1.6670468490274708E9, 0.0, 2022-10-29 14:34:09.027
46.0, -2210.3725013616495, -3691.333614865318, 2833.826913625002, -9227.701994070783, 0.01600000075995922, 0.01600000075995922, 0.9920000471174717, 0.0, 0.0, 0.0, 0.0, 0.0, 1.6670468490410287E9, 0.0, 2022-10-29 14:34:09.041
46.0, -2299.6065143044107, -3821.4746535234153, 2868.9988027582876, -9266.454837411642, 0.01600000075995922, 0.01600000075995922, 0.9920000471174717, 0.0, 0.0, 0.0, 0.0, 0.0, 1.6670468490410287E9, 0.0, 2022-10-29 14:34:09.041
47.0, -2417.39840330882, -3707.3534763255157, 2843.8180563566275, -9425.920431622304, 0.01600000075995922, 0.01600000075995922, 0.9920000471174717, 0.0, 0.0, 0.0, 0.0, 0.0, 1.6670468490567417E9, 0.0, 2022-10-29 14:34:09.056
47.0, -2337.798372651916, -3642.9972778880037, 2721.312023458071, -9626.403378596995, 0.01600000075995922, 0.01600000075995922, 0.9920000471174717, 0.0, 0.0, 0.0, 0.0, 0.0, 1.6670468490567417E9, 0.0, 2022-10-29 14:34:09.056
48.0, -2187.1178034371696, -3673.516731476411, 2838.0866596745327, -9718.309550058097, 0.01600000075995922, 0.01600000075995922, 0.9920000471174717, 0.0, 0.0, 0.0, 0.0, 0.0, 1.6670468490575776E9, 0.0, 2022-10-29 14:34:09.057
48.0, -2269.799511657562, -3798.3396323975176, 2875.2182563846, -9726.802862857468, 0.01600000075995922, 0.01600000075995922, 0.9920000471174717, 0.0, 0.0, 0.0, 0.0, 0.0, 1.6670468490575776E9, 0.0, 2022-10-29 14:34:09.057
49.0, -2382.1648058262654, -3669.5543074733578, 2847.262504215818, -9932.355244222097, 0.01600000075995922, 0.01600000075995922, 0.9920000471174717, 0.0, 0.0, 0.0, 0.0, 0.0, 1.6670468490710356E9, 0.0, 2022-10-29 14:34:09.071
49.0, -2348.232693528291, -3642.6980858915485, 2704.3403574591503, -10135.037252370734, 0.01600000075995922, 0.01600000075995922, 0.9920000471174717, 0.0, 0.0, 0.0, 0.0, 0.0, 1.6670468490710356E9, 0.0, 2022-10-29 14:34:09.071
50.0, -2202.600989253726, -3680.203672597185, 2828.4152783891186, -10235.829426126555, 0.01600000075995922, 0.01600000075995922, 0.9920000471174717, 0.0, 0.0, 0.0, 0.0, 0.0, 1.6670468490868158E9, 0.0, 2022-10-29 14:34:09.086
50.0, -2239.4838826167397, -3768.37555395253, 2911.8169173509814, -10209.898829783779, 0.01600000075995922, 0.01600000075995922, 0.9920000471174717, 0.0, 0.0, 0.0, 0.0, 0.0, 1.6670468490868158E9, 0.0, 2022-10-29 14:34:09.086
51.0, -2324.9368567042984, -3614.1252502300777, 2893.704581865575, -10416.838714031968, 0.01600000075995922, 0.01600000075995922, 0.9920000471174717, 0.0, 0.0, 0.0, 0.0, 0.0, 1.6670468490875075E9, 0.0, 2022-10-29 14:34:09.087
51.0, -2327.934386518784, -3614.347774277441, 2718.963366285898, -10616.955150811002, 0.01600000075995922, 0.01600000075995922, 0.9920000471174717, 0.0, 0.0, 0.0, 0.0, 0.0, 1.6670468490875075E9, 0.0, 2022-10-29 14:34:09.087
52.0, -2247.0814893767238, -3726.030536704231, 2782.264912935905, -10749.057766995858, 0.01600000075995922, 0.01600000075995922, 0.9920000471174717, 0.0, 0.0, 0.0, 0.0, 0.0, 1.6670468491173673E9, 0.0, 2022-10-29 14:34:09.117
52.0, -2211.030723753851, -3729.093514767941, 2925.9761785832234, -10699.446124133654, 0.01600000075995922, 0.01600000075995922, 0.9920000471174717, 0.0, 0.0, 0.0, 0.0, 0.0, 1.6670468491173673E9, 0.0, 2022-10-29 14:34:09.117
53.0, -2361.53551767068, -3657.610936964862, 2875.2967942836694, -10878.374157713726, 0.01600000075995922, 0.01600000075995922, 0.9920000471174717, 0.0, 0.0, 0.0, 0.0, 0.0, 1.6670468491181543E9, 0.0, 2022-10-29 14:34:09.118
53.0, -2354.3062910563312, -3647.8871970800683, 2685.517440982163, -10640.067732537165, 0.01600000075995922, 0.01600000075995922, 0.9920000471174717, 0.0, 0.0, 0.0, 0.0, 0.0, 1.6670468491181543E9, 0.0, 2022-10-29 14:34:09.118
54.0, -2318.7922010771, -3772.390336554963, 2745.6587721696123, -10760.445762360934, 0.01600000075995922, 0.01600000075995922, 0.9920000471174717, 0.0, 0.0, 0.0, 0.0, 0.0, 1.6670468491187997E9, 0.0, 2022-10-29 14:34:09.118
54.0, -2189.270115861669, -3696.4161389051005, 2948.9391643111594, -10671.961599359289, 0.01600000075995922, 0.01600000075995922, 0.9920000471174717, 0.0, 0.0, 0.0, 0.0, 0.0, 1.6670468491187997E9, 0.0, 2022-10-29 14:34:09.118
55.0, -2383.060511865653, -3672.30313394079, 2861.2198108504526, -10860.501175825484, 0.01600000075995922, 0.01600000075995922, 0.9920000471174717, 0.0, 0.0, 0.0, 0.0, 0.0, 1.667046849130964E9, 0.0, 2022-10-29 14:34:09.130
55.0, -2424.2424202277325, -3709.434730650857, 2645.560349855572, -10648.03745934274, 0.01600000075995922, 0.01600000075995922, 0.9920000471174717, 0.0, 0.0, 0.0, 0.0, 0.0, 1.667046849130964E9, 0.0, 2022-10-29 14:34:09.130
56.0, -2308.264382701833, -3756.144211147446, 2743.4410114958882, -10762.794419533107, 0.01600000075995922, 0.01600000075995922, 0.9920000471174717, 0.0, 0.0, 0.0, 0.0, 0.0, 1.6670468491466491E9, 0.0, 2022-10-29 14:34:09.146
56.0, -2275.6318856384605, -3788.5242649638094, 2906.682034711819, -10677.257297696546, 0.01600000075995922, 0.01600000075995922, 0.9920000471174717, 0.0, 0.0, 0.0, 0.0, 0.0, 1.6670468491466491E9, 0.0, 2022-10-29 14:34:09.146
57.0, -2327.377141425386, -3600.0613564467058, 2914.6012728679925, -10851.77598922886, 0.01600000075995922, 0.01600000075995922, 0.9920000471174717, 0.0, 0.0, 0.0, 0.0, 0.0, 1.6670468491474283E9, 0.0, 2022-10-29 14:34:09.147
57.0, -2485.7375951991417, -3772.6970083513297, 3097.747913598083, -10658.50169941876, 0.01600000075995922, 0.01600000075995922, 0.9920000471174717, 0.0, 0.0, 0.0, 0.0, 0.0, 1.6670468491474283E9, 0.0, 2022-10-29 14:34:09.147
58.0, -2287.4892384479754, -3738.114153461065, 3255.051845634356, -10804.045516044367, 0.01600000075995922, 0.01600000075995922, 0.9920000471174717, 0.0, 0.0, 0.0, 0.0, 0.0, 1.6670468491610584E9, 0.0, 2022-10-29 14:34:09.161
58.0, -2312.5764873507433, -3819.838447292801, 3367.4863279522397, -10692.815281512216, 0.01600000075995922, 0.01600000075995922, 0.9920000471174717, 0.0, 0.0, 0.0, 0.0, 0.0, 1.6670468491610584E9, 0.0, 2022-10-29 14:34:09.161
59.0, -2259.2436440326273, -4027.8554227282293, 3445.644627176225, -10842.904946533963, 0.01600000075995922, 0.01600000075995922, 0.9920000471174717, 0.0, 0.0, 0.0, 0.0, 0.0, 1.6670468491767864E9, 0.0, 2022-10-29 14:34:09.176
59.0, -2499.9604347306304, -4260.647365420125, 3594.380448414013, -10649.55585872475, 0.01600000075995922, 0.01600000075995922, 0.9920000471174717, 0.0, 0.0, 0.0, 0.0, 0.0, 1.6670468491767864E9, 0.0, 2022-10-29 14:34:09.176
60.0, -2738.8820734499022, -4173.836807648651, 3773.394499693066, -10758.328978986014, 0.01600000075995922, 0.01600000075995922, 0.9920000471174717, 0.0, 0.0, 0.0, 0.0, 0.0, 1.6670468491774914E9, 0.0, 2022-10-29 14:34:09.177
60.0, -2745.0903073763475, -4233.806103438139, 3903.249436004553, -10658.84951011464, 0.01600000075995922, 0.01600000075995922, 0.9920000471174717, 0.0, 0.0, 0.0, 0.0, 0.0, 1.6670468491774914E9, 0.0, 2022-10-29 14:34:09.177
61.0, -2744.7630661302246, -4036.902240721043, 3954.3084201496094, -10833.132587949745, 0.01600000075995922, 0.01600000075995922, 0.9920000471174717, 0.0, 0.0, 0.0, 0.0, 0.0, 1.6670468491910129E9, 0.0, 2022-10-29 14:34:09.191
61.0, -2971.208398597315, -4255.370366582647, 4097.079100958072, -10647.56997184828, 0.01600000075995922, 0.01600000075995922, 0.9920000471174717, 0.0, 0.0, 0.0, 0.0, 0.0, 1.6670468491910129E9, 0.0, 2022-10-29 14:34:09.191
62.0, -2779.74422036577, -4226.19540702831, 4211.942648297176, -10784.968286370393, 0.01600000075995922, 0.01600000075995922, 0.9920000471174717, 0.0, 0.0, 0.0, 0.0, 0.0, 1.6670468492066655E9, 0.0, 2022-10-29 14:34:09.206
62.0, -2712.955217007082, -4206.480524411891, 4414.295545249712, -10665.00164554175, 0.01600000075995922, 0.01600000075995922, 0.9920000471174717, 0.0, 0.0, 0.0, 0.0, 0.0, 1.6670468492066655E9, 0.0, 2022-10-29 14:34:09.206
63.0, -2787.6896378216334, -4055.5699513498694, 4418.58334054891, -10848.694311665371, 0.01600000075995922, 0.01600000075995922, 0.9920000471174717, 0.0, 0.0, 0.0, 0.0, 0.0, 1.667046849207454E9, 0.0, 2022-10-29 14:34:09.207
63.0, -2933.0090604498982, -4209.850174271967, 4614.131489532068, -10648.703161534853, 0.01600000075995922, 0.01600000075995922, 0.9920000471174717, 0.0, 0.0, 0.0, 0.0, 0.0, 1.667046849207454E9, 0.0, 2022-10-29 14:34:09.207
64.0, -2845.211169090122, -4276.945849427022, 4684.161116202362, -10765.023399906699, 0.01600000075995922, 0.01600000075995922, 0.9920000471174717, 0.0, 0.0, 0.0, 0.0, 0.0, 1.6670468492209587E9, 0.0, 2022-10-29 14:34:09.220
64.0, -2667.1152632501908, -4159.402663769666, 4451.954467853531, -10650.483353913762, 0.01600000075995922, 0.01600000075995922, 0.9920000471174717, 0.0, 0.0, 0.0, 0.0, 0.0, 1.6670468492209587E9, 0.0, 2022-10-29 14:34:09.220
65.0, -2835.8371098511852, -4071.3224099632353, 4391.644841168076, -10837.650387096219, 0.01600000075995922, 0.01600000075995922, 0.9920000471174717, 0.0, 0.0, 0.0, 0.0, 0.0, 1.6670468492373395E9, 0.0, 2022-10-29 14:34:09.237
65.0, -2916.6619577435777, -4196.981178524438, 4612.534552250989, -10638.500714455731, 0.01600000075995922, 0.01600000075995922, 0.9920000471174717, 0.0, 0.0, 0.0, 0.0, 0.0, 1.6670468492373395E9, 0.0, 2022-10-29 14:34:09.237
66.0, -2891.645766939968, -4335.306988235563, 4646.088934653439, -10794.336735759396, 0.01600000075995922, 0.01600000075995922, 0.9920000471174717, 0.0, 0.0, 0.0, 0.0, 0.0, 1.6670468492517004E9, 0.0, 2022-10-29 14:34:09.251
66.0, -2670.1932009137236, -4148.482155899052, 4461.607149639167, -10646.145069965161, 0.01600000075995922, 0.01600000075995922, 0.9920000471174717, 0.0, 0.0, 0.0, 0.0, 0.0, 1.6670468492517004E9, 0.0, 2022-10-29 14:34:09.251
67.0, -2789.48852970032, -4044.286673183553, 4415.2997083878145, -10833.611295144074, 0.01600000075995922, 0.01600000075995922, 0.9920000471174717, 0.0, 0.0, 0.0, 0.0, 0.0, 1.6670468492523792E9, 0.0, 2022-10-29 14:34:09.252
67.0, -2947.7704455750063, -4222.876245817635, 4593.737815073691, -10666.093696328811, 0.01600000075995922, 0.01600000075995922, 0.9920000471174717, 0.0, 0.0, 0.0, 0.0, 0.0, 1.6670468492523792E9, 0.0, 2022-10-29 14:34:09.252
68.0, -2875.8409497272223, -4302.754899021238, 4657.843440214172, -10805.698551824782, 0.01600000075995922, 0.01600000075995922, 0.9920000471174717, 0.0, 0.0, 0.0, 0.0, 0.0, 1.6670468492667048E9, 0.0, 2022-10-29 14:34:09.266
68.0, -2661.2473602197133, -4133.791828873102, 4465.238592496142, -10644.701468582265, 0.01600000075995922, 0.01600000075995922, 0.9920000471174717, 0.0, 0.0, 0.0, 0.0, 0.0, 1.6670468492667048E9, 0.0, 2022-10-29 14:34:09.266
69.0, -2735.458195040468, -3991.8009172054008, 4461.37901574187, -10819.01072571706, 0.01600000075995922, 0.01600000075995922, 0.9920000471174717, 0.0, 0.0, 0.0, 0.0, 0.0, 1.6670468492674775E9, 0.0, 2022-10-29 14:34:09.267
69.0, -2934.4900608323514, -4199.4869114947505, 4607.070558415726, -10662.843723267317, 0.01600000075995922, 0.01600000075995922, 0.9920000471174717, 0.0, 0.0, 0.0, 0.0, 0.0, 1.6670468492674775E9, 0.0, 2022-10-29 14:34:09.267
70.0, -2847.3616115646437, -4274.357838657685, 4668.827526384033, -10812.48647024436, 0.01600000075995922, 0.01600000075995922, 0.9920000471174717, 0.0, 0.0, 0.0, 0.0, 0.0, 1.6670468492810946E9, 0.0, 2022-10-29 14:34:09.281
70.0, -2617.4269524388947, -4102.320570745971, 4501.751235763542, -10621.072780662216, 0.01600000075995922, 0.01600000075995922, 0.9920000471174717, 0.0, 0.0, 0.0, 0.0, 0.0, 1.6670468492810946E9, 0.0, 2022-10-29 14:34:09.281
71.0, -2755.021611708682, -4000.3428487041965, 4449.714267780073, -10822.903961570933, 0.01600000075995922, 0.01600000075995922, 0.9920000471174717, 0.0, 0.0, 0.0, 0.0, 0.0, 1.6670468492966115E9, 0.0, 2022-10-29 14:34:09.296
71.0, -2985.607013426721, -4242.480801385362, 4574.166918605566, -10669.01829809416, 0.01600000075995922, 0.01600000075995922, 0.9920000471174717, 0.0, 0.0, 0.0, 0.0, 0.0, 1.6670468492966115E9, 0.0, 2022-10-29 14:34:09.296
