%OpenBCI Raw EEG Data
%Number of channels = 4
%Sample Rate = 200 Hz
%Board = OpenBCI_GUI$BoardGanglionBLE
Sample Index, EXG Channel 0, EXG Channel 1, EXG Channel 2, EXG Channel 3, Accel Channel 0, Accel Channel 1, Accel Channel 2, Other, Other, Other, Other, Other, Timestamp, Other, Timestamp (Formatted)
2.0, 222.63437441224232, 169.44925714237615, -102.4956981856376, -102.07308949064463, 0.0, 0.0, 0.0, 0.0, 0.0, 0.0, 0.0, 0.0, 1.6670453239514031E9, 0.0, 2022-10-29 14:08:43.951
2.0, 136.18658693647012, 190.0579758482054, -166.82571732345968, -233.37723703496158, 0.0, 0.0, 0.0, 0.0, 0.0, 0.0, 0.0, 0.0, 1.6670453239514031E9, 0.0, 2022-10-29 14:08:43.951
3.0, 19.200646372511983, 13.158837994094938, 37.89266635105014, -442.9257015022449, 0.0, 0.0, 0.0, 0.0, 0.0, 0.0, 0.0, 0.0, 1.6670453239657538E9, 0.0, 2022-10-29 14:08:43.965
3.0, 258.8777448828332, 210.30579420831054, -91.75470551289618, -543.293396613095, 0.0, 0.0, 0.0, 0.0, 0.0, 0.0, 0.0, 0.0, 1.6670453239657538E9, 0.0, 2022-10-29 14:08:43.965
4.0, 182.4379296884872, 142.4004307128489, -327.3459633216262, -493.29654405545443, 0.0, 0.0, 0.0, 0.0, 0.0, 0.0, 0.0, 0.0, 1.6670453239665105E9, 0.0, 2022-10-29 14:08:43.966
4.0, 219.37879150081426, 247.85251981345937, -110.17558274464682, -665.2908031176776, 0.0, 0.0, 0.0, 0.0, 0.0, 0.0, 0.0, 0.0, 1.6670453239665105E9, 0.0, 2022-10-29 14:08:43.966
5.0, 10.421231226529926, 488.9451704570092, 68.02691024402156, -455.83396619930863, 0.0, 0.0, 0.0, 0.0, 0.0, 0.0, 0.0, 0.0, 1.6670453239802313E9, 0.0, 2022-10-29 14:08:43.980
5.0, -219.24976495234296, 697.2407684391364, -73.03837618464604, -571.7035466264933, 0.0, 0.0, 0.0, 0.0, 0.0, 0.0, 0.0, 0.0, 1.6670453239802313E9, 0.0, 2022-10-29 14:08:43.980
6.0, -275.08647129079327, 649.3438697066158, -293.02677137823775, -501.38033780967817, 0.0, 0.0, 0.0, 0.0, 0.0, 0.0, 0.0, 0.0, 1.6670453239959137E9, 0.0, 2022-10-29 14:08:43.995
6.0, -248.5948899546638, 801.7691022506915, -64.94710263051093, -634.6778520303778, 0.0, 0.0, 0.0, 0.0, 0.0, 0.0, 0.0, 0.0, 1.6670453239959137E9, 0.0, 2022-10-29 14:08:43.995
7.0, -442.4095953083597, 1027.344907978084, 23.464132321998477, -466.56186922220513, 0.0, 0.0, 0.0, 0.0, 0.0, 0.0, 0.0, 0.0, 1.6670453239963903E9, 0.0, 2022-10-29 14:08:43.996
7.0, -246.92315467447042, 1174.1490708887577, -111.93894557375461, -616.8759282412939, 0.0, 0.0, 0.0, 0.0, 0.0, 0.0, 0.0, 0.0, 1.6670453239963903E9, 0.0, 2022-10-29 14:08:43.996
8.0, -307.629210755229, 1114.905315690674, -323.7033007647842, -555.1657090224326, 0.0, 0.0, 0.0, 0.0, 0.0, 0.0, 0.0, 0.0, 1.6670453240099907E9, 0.0, 2022-10-29 14:08:44.009
8.0, -160.82130794459954, 885.3726958101615, -483.4867864716798, -558.1950279865414, 0.0, 0.0, 0.0, 0.0, 0.0, 0.0, 0.0, 0.0, 1.6670453240099907E9, 0.0, 2022-10-29 14:08:44.009
9.0, 25.53042704751715, 995.84186070133, -412.5595838120207, -475.898529461585, 0.0, 0.0, 0.0, 0.0, 0.0, 0.0, 0.0, 0.0, 1.6670453240256689E9, 0.0, 2022-10-29 14:08:44.025
9.0, -216.03345099044964, 1193.2094710129313, -567.8140506725758, -586.2068786546588, 0.0, 0.0, 0.0, 0.0, 0.0, 0.0, 0.0, 0.0, 1.6670453240256689E9, 0.0, 2022-10-29 14:08:44.025
10.0, -293.759791769553, 1123.6772510367446, -330.6501649324782, -533.6594143272378, 0.0, 0.0, 0.9920000471174717, 0.0, 0.0, 0.0, 0.0, 0.0, 1.667045324026381E9, 0.0, 2022-10-29 14:08:44.026
10.0, -156.75042684283108, 884.2077169739641, -471.2030850672163, -549.251057242509, 0.0, 0.0, 0.9920000471174717, 0.0, 0.0, 0.0, 0.0, 0.0, 1.667045324026381E9, 0.0, 2022-10-29 14:08:44.026
11.0, 77.49072708189487, 1051.272787894588, -461.7934967787005, -445.2743586744182, 0.0, 0.03200000151991844, 0.9920000471174717, 0.0, 0.0, 0.0, 0.0, 0.0, 1.6670453240399356E9, 0.0, 2022-10-29 14:08:44.039
11.0, 258.9899418815039, 1194.153795751743, -579.8135196804069, -617.115281838458, 0.0, 0.03200000151991844, 0.9920000471174717, 0.0, 0.0, 0.0, 0.0, 0.0, 1.6670453240399356E9, 0.0, 2022-10-29 14:08:44.039
12.0, 224.36220819177106, 1148.1231070971116, -745.0722189224325, -520.2724424358457, 0.0, 0.03200000151991844, 0.9920000471174717, 0.0, 0.0, 0.0, 0.0, 0.0, 1.6670453240557396E9, 0.0, 2022-10-29 14:08:44.055
12.0, 370.8409998062998, 1389.4195822882466, -907.4511951985769, -539.9929349021986, 0.0, 0.03200000151991844, 0.9920000471174717, 0.0, 0.0, 0.0, 0.0, 0.0, 1.6670453240557396E9, 0.0, 2022-10-29 14:08:44.055
13.0, 585.9974442571402, 1572.712079116609, -958.2222070470452, -417.8291028495878, 0.0, 0.03200000151991844, 0.9920000471174717, 0.0, 0.0, 0.0, 0.0, 0.0, 1.6670453240567112E9, 0.0, 2022-10-29 14:08:44.056
13.0, 736.9005375192501, 1676.3428369387984, -1089.9489632863551, -618.912303767167, 0.0, 0.03200000151991844, 0.9920000471174717, 0.0, 0.0, 0.0, 0.0, 0.0, 1.6670453240567112E9, 0.0, 2022-10-29 14:08:44.056
14.0, 669.9600682123564, 1602.03102481924, -1297.5096709271893, -554.2475635833107, 0.0, 0.03200000151991844, 0.9920000471174717, 0.0, 0.0, 0.0, 0.0, 0.0, 1.6670453240699732E9, 0.0, 2022-10-29 14:08:44.069
14.0, 439.72060724021867, 1486.5204747878015, -1310.0009367791936, -463.24644791148603, 0.0, 0.03200000151991844, 0.9920000471174717, 0.0, 0.0, 0.0, 0.0, 0.0, 1.6670453240699732E9, 0.0, 2022-10-29 14:08:44.069
15.0, 584.1555435289629, 1557.55239464622, -1426.994357143063, -424.62076116912067, 0.0, 0.03200000151991844, 0.9920000471174717, 0.0, 0.0, 0.0, 0.0, 0.0, 1.6670453240857224E9, 0.0, 2022-10-29 14:08:44.085
15.0, 757.3708799267188, 1680.436157440301, -1583.1613595928065, -617.6295180823654, 0.0, 0.03200000151991844, 0.9920000471174717, 0.0, 0.0, 0.0, 0.0, 0.0, 1.6670453240857224E9, 0.0, 2022-10-29 14:08:44.085
16.0, 681.6266861241311, 1613.0095011391677, -1769.2887005875818, -556.8355743526481, 0.0, 0.03200000151991844, 0.9920000471174717, 0.0, 0.0, 0.0, 0.0, 0.0, 1.6670453240864592E9, 0.0, 2022-10-29 14:08:44.086
16.0, 496.7185525149107, 1514.3098014085554, -1776.596465101, -416.13492816966027, 0.0, 0.03200000151991844, 0.9920000471174717, 0.0, 0.0, 0.0, 0.0, 0.0, 1.6670453240864592E9, 0.0, 2022-10-29 14:08:44.086
17.0, 589.7036851132289, 1590.1699321097694, -1904.4056761367247, -402.80966462753713, 0.0, 0.03200000151991844, 0.9920000471174717, 0.0, 0.0, 0.0, 0.0, 0.0, 1.667045324100022E9, 0.0, 2022-10-29 14:08:44.100
17.0, 749.5563589693047, 1693.2958034379408, -2076.03342500329, -624.0359667064622, 0.0, 0.03200000151991844, 0.9920000471174717, 0.0, 0.0, 0.0, 0.0, 0.0, 1.667045324100022E9, 0.0, 2022-10-29 14:08:44.100
18.0, 661.7771671093069, 1594.5624446077272, -2308.4943865491077, -588.845378073398, 0.0, 0.03200000151991844, 0.9920000471174717, 0.0, 0.0, 0.0, 0.0, 0.0, 1.6670453241156616E9, 0.0, 2022-10-29 14:08:44.115
18.0, 549.3669941411354, 1579.1241375906393, -2228.4848368470557, -372.912904381752, 0.0, 0.03200000151991844, 0.9920000471174717, 0.0, 0.0, 0.0, 0.0, 0.0, 1.6670453241156616E9, 0.0, 2022-10-29 14:08:44.115
19.0, 608.7865246371366, 1581.3194588646293, -2338.712778191082, -411.6937969722785, 0.0, 0.03200000151991844, 0.9920000471174717, 0.0, 0.0, 0.0, 0.0, 0.0, 1.6670453241163914E9, 0.0, 2022-10-29 14:08:44.116
19.0, 773.336512837559, 1707.8084852159955, -2531.6990957045928, -596.2279405859299, 0.0, 0.03200000151991844, 0.9920000471174717, 0.0, 0.0, 0.0, 0.0, 0.0, 1.6670453241163914E9, 0.0, 2022-10-29 14:08:44.116
20.0, 631.0520190233365, 1558.0554111902602, -2324.2262757127173, -621.7751971832477, 0.0, 0.03200000151991844, 1.008000047877431, 0.0, 0.0, 0.0, 0.0, 0.0, 1.6670453241300392E9, 0.0, 2022-10-29 14:08:44.130
20.0, 587.9870710335672, 1620.3490548022091, -2158.8834287216887, -801.7840618505143, 0.0, 0.03200000151991844, 1.008000047877431, 0.0, 0.0, 0.0, 0.0, 0.0, 1.6670453241300392E9, 0.0, 2022-10-29 14:08:44.130
21.0, 645.0691640572622, 1617.4712017863058, -2387.4605041635223, -865.0986981503665, 0.0, 0.03200000151991844, 1.008000047877431, 0.0, 0.0, 0.0, 0.0, 0.0, 1.6670453241457105E9, 0.0, 2022-10-29 14:08:44.145
21.0, 752.6417764327489, 1689.9336333777755, -2575.330638537649, -622.1529270787723, 0.0, 0.03200000151991844, 1.008000047877431, 0.0, 0.0, 0.0, 0.0, 0.0, 1.6670453241457105E9, 0.0, 2022-10-29 14:08:44.145
22.0, 659.3574518379755, 1583.9673080332577, -2782.0423888885416, -607.528048302047, 0.0, 0.03200000151991844, 1.008000047877431, 0.0, 0.0, 0.0, 0.0, 0.0, 1.66704532414641E9, 0.0, 2022-10-29 14:08:44.146
22.0, 625.4963976391591, 1658.7709169969894, -2594.8286069566384, -776.0591600053012, 0.0, 0.03200000151991844, 1.008000047877431, 0.0, 0.0, 0.0, 0.0, 0.0, 1.66704532414641E9, 0.0, 2022-10-29 14:08:44.146
23.0, 649.2784214573912, 1626.826561525464, -2355.493709292263, -869.5136500480585, 0.0, 0.03200000151991844, 1.008000047877431, 0.0, 0.0, 0.0, 0.0, 0.0, 1.6670453241601083E9, 0.0, 2022-10-29 14:08:44.160
23.0, 753.9301719674841, 1701.6900088884868, -2565.4853519042954, -1113.8712333529256, 0.0, 0.03200000151991844, 1.008000047877431, 0.0, 0.0, 0.0, 0.0, 0.0, 1.6670453241601083E9, 0.0, 2022-10-29 14:08:44.160
24.0, 619.1853164639324, 1548.6121638021432, -2364.920127130579, -1143.379044003319, 0.0, 0.03200000151991844, 1.008000047877431, 0.0, 0.0, 0.0, 0.0, 0.0, 1.6670453241757598E9, 0.0, 2022-10-29 14:08:44.175
24.0, 679.0368054048158, 1733.140697565861, -2562.715955987107, -1197.5701943612657, 0.0, 0.03200000151991844, 1.008000047877431, 0.0, 0.0, 0.0, 0.0, 0.0, 1.6670453241757598E9, 0.0, 2022-10-29 14:08:44.175
25.0, 658.5776826972142, 1644.4695395664312, -2807.7934700334445, -1300.1463003959507, 0.0, 0.03200000151991844, 1.008000047877431, 0.0, 0.0, 0.0, 0.0, 0.0, 1.6670453241764247E9, 0.0, 2022-10-29 14:08:44.176
25.0, 762.0251854215749, 1708.9136256529018, -2562.753354986664, -1100.624507709872, 0.0, 0.03200000151991844, 1.008000047877431, 0.0, 0.0, 0.0, 0.0, 0.0, 1.6670453241764247E9, 0.0, 2022-10-29 14:08:44.176
26.0, 626.4687716276385, 1556.718396956101, -2338.0807350985706, -1133.236435323488, 0.0, 0.03200000151991844, 1.008000047877431, 0.0, 0.0, 0.0, 0.0, 0.0, 1.667045324190065E9, 0.0, 2022-10-29 14:08:44.190
26.0, 721.3967822529376, 1764.8083004406653, -2508.1863446831703, -1157.500906236004, 0.0, 0.03200000151991844, 1.008000047877431, 0.0, 0.0, 0.0, 0.0, 0.0, 1.667045324190065E9, 0.0, 2022-10-29 14:08:44.190
27.0, 692.0740966503508, 1656.749501070939, -2380.984867390245, -1296.5784358382225, 0.0, 0.03200000151991844, 1.008000047877431, 0.0, 0.0, 0.0, 0.0, 0.0, 1.6670453242057104E9, 0.0, 2022-10-29 14:08:44.205
27.0, 744.0867552841082, 1687.5943259554915, -2600.659110987559, -1126.8636457989924, 0.0, 0.03200000151991844, 1.008000047877431, 0.0, 0.0, 0.0, 0.0, 0.0, 1.6670453242057104E9, 0.0, 2022-10-29 14:08:44.205
28.0, 600.8448470812291, 1538.0880853268318, -2373.6378339272924, -1144.8824837855063, 0.0, 0.03200000151991844, 1.008000047877431, 0.0, 0.0, 0.0, 0.0, 0.0, 1.6670453242065296E9, 0.0, 2022-10-29 14:08:44.206
28.0, 766.2288329717703, 1299.516127253417, -2489.941242749337, -1135.1493941508234, 0.0, 0.03200000151991844, 1.008000047877431, 0.0, 0.0, 0.0, 0.0, 0.0, 1.6670453242065296E9, 0.0, 2022-10-29 14:08:44.206
29.0, 660.5411301739514, 1164.3505330048501, -2306.4580110232346, -1295.559313100297, 0.0, 0.03200000151991844, 1.008000047877431, 0.0, 0.0, 0.0, 0.0, 0.0, 1.66704532422006E9, 0.0, 2022-10-29 14:08:44.220
29.0, 756.3330576890148, 1211.4340034970082, -2086.4640059797093, -1104.7514873109758, 0.0, 0.03200000151991844, 1.008000047877431, 0.0, 0.0, 0.0, 0.0, 0.0, 1.66704532422006E9, 0.0, 2022-10-29 14:08:44.220
30.0, 577.2292488110252, 1019.8202292672358, -1923.589492959436, -1198.712733797729, 0.0, 0.03200000151991844, 1.008000047877431, 0.0, 0.0, 0.0, 0.0, 0.0, 1.6670453242357483E9, 0.0, 2022-10-29 14:08:44.235
30.0, 821.8056162633002, 867.9802910662256, -1949.858550248202, -1097.1837997506373, 0.0, 0.03200000151991844, 1.008000047877431, 0.0, 0.0, 0.0, 0.0, 0.0, 1.6670453242357483E9, 0.0, 2022-10-29 14:08:44.235
31.0, 687.1000297092833, 680.4037388386205, -1874.6454222393222, -1306.354534322396, 0.0, 0.01600000075995922, 1.008000047877431, 0.0, 0.0, 0.0, 0.0, 0.0, 1.6670453242365997E9, 0.0, 2022-10-29 14:08:44.236
31.0, 727.844369776547, 693.7944506299682, -1640.189224067144, -1148.9178358376957, 0.0, 0.01600000075995922, 1.008000047877431, 0.0, 0.0, 0.0, 0.0, 0.0, 1.6670453242365997E9, 0.0, 2022-10-29 14:08:44.236
32.0, 595.6276866430417, 541.7899568309076, -1867.3170882761478, -1177.606608397793, 0.0, 0.01600000075995922, 1.008000047877431, 0.0, 0.0, 0.0, 0.0, 0.0, 1.6670453242500267E9, 0.0, 2022-10-29 14:08:44.250
32.0, 835.0916108558886, 369.39178857346997, -1907.4985734000802, -1064.5326031874865, 0.0, 0.01600000075995922, 1.008000047877431, 0.0, 0.0, 0.0, 0.0, 0.0, 1.6670453242500267E9, 0.0, 2022-10-29 14:08:44.250
33.0, 687.4908492546529, 194.34390119742602, -1862.7095315307379, -1297.1450306815095, 0.0, 0.01600000075995922, 1.008000047877431, 0.0, 0.0, 0.0, 0.0, 0.0, 1.6670453242657237E9, 0.0, 2022-10-29 14:08:44.265
33.0, 728.9682097132318, 210.73401275323704, -1639.7273464226164, -1143.2874164544046, 0.0, 0.01600000075995922, 1.008000047877431, 0.0, 0.0, 0.0, 0.0, 0.0, 1.6670453242657237E9, 0.0, 2022-10-29 14:08:44.265
34.0, 552.0447625094093, 22.011181189212948, -1443.3470696993172, -1229.5220296327025, 0.0, 0.01600000075995922, 1.008000047877431, 0.0, 0.0, 0.0, 0.0, 0.0, 1.6670453242664871E9, 0.0, 2022-10-29 14:08:44.266
34.0, 412.22860266594216, -12.26874180464074, -1369.5214445739985, -1015.4931650185026, 0.0, 0.01600000075995922, 1.008000047877431, 0.0, 0.0, 0.0, 0.0, 0.0, 1.6670453242664871E9, 0.0, 2022-10-29 14:08:44.266
35.0, 193.13591351173818, 182.57630598684773, -1332.1972430162132, -807.588386581745, 0.0, 0.01600000075995922, 1.008000047877431, 0.0, 0.0, 0.0, 0.0, 0.0, 1.6670453242801087E9, 0.0, 2022-10-29 14:08:44.280
35.0, 248.18537090951577, 209.96546331234276, -1148.0763583476655, -643.1767746796831, 0.0, 0.01600000075995922, 1.008000047877431, 0.0, 0.0, 0.0, 0.0, 0.0, 1.6670453242801087E9, 0.0, 2022-10-29 14:08:44.280
36.0, 56.15272788470611, 25.76791069470346, -939.2796137714759, -729.7292793542147, 0.0, 0.01600000075995922, 1.008000047877431, 0.0, 0.0, 0.0, 0.0, 0.0, 1.6670453242956843E9, 0.0, 2022-10-29 14:08:44.295
36.0, -62.342262311372906, -12.577283550985157, -841.3428536318243, -496.53342746710405, 0.0, 0.01600000075995922, 1.008000047877431, 0.0, 0.0, 0.0, 0.0, 0.0, 1.6670453242956843E9, 0.0, 2022-10-29 14:08:44.295
37.0, -289.11670597456396, 205.85157336108387, -909.1304102786817, -305.1739664343186, 0.0, 0.01600000075995922, 1.008000047877431, 0.0, 0.0, 0.0, 0.0, 0.0, 1.6670453242964003E9, 0.0, 2022-10-29 14:08:44.296
37.0, -271.08851823816076, 187.4550054790452, -696.9415764426813, -193.88763340283185, 0.0, 0.01600000075995922, 1.008000047877431, 0.0, 0.0, 0.0, 0.0, 0.0, 1.6670453242964003E9, 0.0, 2022-10-29 14:08:44.296
38.0, -432.2894260282628, 13.336483241990209, -455.5291643529199, -242.70080762449652, 0.0, 0.01600000075995922, 1.008000047877431, 0.0, 0.0, 0.0, 0.0, 0.0, 1.6670453243099911E9, 0.0, 2022-10-29 14:08:44.309
38.0, -504.27128047542647, 51.23101954301819, -304.14175404654816, -443.5072559453547, 0.0, 0.01600000075995922, 1.008000047877431, 0.0, 0.0, 0.0, 0.0, 0.0, 1.6670453243099911E9, 0.0, 2022-10-29 14:08:44.309
39.0, -272.9622081159614, 196.5597919211723, -365.5901802685112, -307.9284027516842, 0.0, 0.01600000075995922, 1.008000047877431, 0.0, 0.0, 0.0, 0.0, 0.0, 1.667045324325732E9, 0.0, 2022-10-29 14:08:44.325
39.0, -262.3876409912482, 202.5081028006971, -181.7310885968618, -174.07177348760888, 0.0, 0.01600000075995922, 1.008000047877431, 0.0, 0.0, 0.0, 0.0, 0.0, 1.667045324325732E9, 0.0, 2022-10-29 14:08:44.325
40.0, -473.05994539521635, -18.88649477623403, -19.813989965245128, -277.1845551659353, 0.0, 0.01600000075995922, 1.008000047877431, 0.0, 0.0, 0.0, 0.0, 0.0, 1.6670453243263912E9, 0.0, 2022-10-29 14:08:44.326
40.0, -445.91388156684116, 83.01642926642671, -258.49253518739715, -409.1693645021878, 0.0, 0.01600000075995922, 1.008000047877431, 0.0, 0.0, 0.0, 0.0, 0.0, 1.6670453243263912E9, 0.0, 2022-10-29 14:08:44.326
41.0, -279.4060557396151, 220.3455556393601, -400.1244164593518, -281.5153593146242, 0.0, 0.03200000151991844, 1.008000047877431, 0.0, 0.0, 0.0, 0.0, 0.0, 1.6670453243400595E9, 0.0, 2022-10-29 14:08:44.340
41.0, -283.77051898790523, 187.34093853039667, -216.2690646876581, -197.2423236630857, 0.0, 0.03200000151991844, 1.008000047877431, 0.0, 0.0, 0.0, 0.0, 0.0, 1.6670453243400595E9, 0.0, 2022-10-29 14:08:44.340
42.0, -450.1212690169923, -8.199730652850121, 7.453620611689985, -272.2721965741366, 0.0, 0.03200000151991844, 1.008000047877431, 0.0, 0.0, 0.0, 0.0, 0.0, 1.66704532435644E9, 0.0, 2022-10-29 14:08:44.356
42.0, -432.48577077593654, 104.60126186069101, -236.27004965068772, -383.3023464586586, 0.0, 0.03200000151991844, 1.008000047877431, 0.0, 0.0, 0.0, 0.0, 0.0, 1.66704532435644E9, 0.0, 2022-10-29 14:08:44.356
43.0, -265.32346245646477, 213.83625976648182, -402.9742202255875, -297.5053015751764, 0.0, 0.03200000151991844, 1.008000047877431, 0.0, 0.0, 0.0, 0.0, 0.0, 1.6670453243570936E9, 0.0, 2022-10-29 14:08:44.357
43.0, -289.6253323685378, 175.73789891786873, -228.9809846370481, -213.58755641942844, 0.0, 0.03200000151991844, 1.008000047877431, 0.0, 0.0, 0.0, 0.0, 0.0, 1.6670453243570936E9, 0.0, 2022-10-29 14:08:44.357
44.0, -496.10146902222186, -52.119245782494545, -45.14059246517718, -305.0131507362239, 0.0, 0.03200000151991844, 1.008000047877431, 0.0, 0.0, 0.0, 0.0, 0.0, 1.6670453243700802E9, 0.0, 2022-10-29 14:08:44.370
44.0, -375.40554770221934, 146.2693572170101, -180.3286261134781, -323.93330461205915, 0.0, 0.03200000151991844, 1.008000047877431, 0.0, 0.0, 0.0, 0.0, 0.0, 1.6670453243700802E9, 0.0, 2022-10-29 14:08:44.370
45.0, -282.7046475005336, 199.82846448244527, -355.66822568606585, -304.40728694340214, 0.0, 0.03200000151991844, 1.008000047877431, 0.0, 0.0, 0.0, 0.0, 0.0, 1.667045324385786E9, 0.0, 2022-10-29 14:08:44.385
45.0, -277.51553631201386, 187.15768343256786, -220.09872224228457, -203.40193889010698, 0.0, 0.03200000151991844, 1.008000047877431, 0.0, 0.0, 0.0, 0.0, 0.0, 1.667045324385786E9, 0.0, 2022-10-29 14:08:44.385
46.0, -491.1199222812429, -34.46504804166034, -40.454497820697725, -313.80004568211734, 0.0, 0.03200000151991844, 1.008000047877431, 0.0, 0.0, 0.0, 0.0, 0.0, 1.6670453243863935E9, 0.0, 2022-10-29 14:08:44.386
46.0, -348.05939922621474, 189.77374345157295, -141.26537107629701, -293.51295837247744, 0.0, 0.03200000151991844, 1.008000047877431, 0.0, 0.0, 0.0, 0.0, 0.0, 1.6670453243863935E9, 0.0, 2022-10-29 14:08:44.386
47.0, -251.9888491644524, 229.97018817532808, 57.140061473008245, -305.0374600859359, 0.0, 0.03200000151991844, 1.008000047877431, 0.0, 0.0, 0.0, 0.0, 0.0, 1.6670453244000287E9, 0.0, 2022-10-29 14:08:44.400
47.0, -299.2798841041513, 164.40226215217263, 234.43936862237751, -250.474189682398, 0.0, 0.03200000151991844, 1.008000047877431, 0.0, 0.0, 0.0, 0.0, 0.0, 1.6670453244000287E9, 0.0, 2022-10-29 14:08:44.400
48.0, -502.83141899248585, -50.76914189849049, 458.65572071587667, -310.43974557192996, 0.0, 0.03200000151991844, 1.008000047877431, 0.0, 0.0, 0.0, 0.0, 0.0, 1.6670453244157567E9, 0.0, 2022-10-29 14:08:44.415
48.0, -318.519799426198, -274.7293108450249, 391.8218385577202, -239.46953406278044, 0.0, 0.03200000151991844, 1.008000047877431, 0.0, 0.0, 0.0, 0.0, 0.0, 1.6670453244157567E9, 0.0, 2022-10-29 14:08:44.415
49.0, -272.2759364740923, -280.2587529295124, 611.3614457566291, -278.49726005038247, 0.0, 0.03200000151991844, 1.008000047877431, 0.0, 0.0, 0.0, 0.0, 0.0, 1.6670453244163988E9, 0.0, 2022-10-29 14:08:44.416
49.0, -299.1732969554141, -330.56788713345304, 722.5991600886919, -228.13389729708433, 0.0, 0.03200000151991844, 1.008000047877431, 0.0, 0.0, 0.0, 0.0, 0.0, 1.6670453244163988E9, 0.0, 2022-10-29 14:08:44.416
50.0, -56.18264708435163, -97.51789134461433, 884.2133268238977, -374.2480486659333, 0.0, 0.03200000151991844, 1.008000047877431, 0.0, 0.0, 0.0, 0.0, 0.0, 1.6670453244300065E9, 0.0, 2022-10-29 14:08:44.430
50.0, -263.5189607278444, -205.83287386130542, 939.2908334713429, -191.91483617620543, 0.0, 0.03200000151991844, 1.008000047877431, 0.0, 0.0, 0.0, 0.0, 0.0, 1.6670453244300065E9, 0.0, 2022-10-29 14:08:44.430
51.0, -257.6510576973669, -261.68640974955633, 1076.8480937415734, -299.2144358549267, 0.0, 0.01600000075995922, 1.008000047877431, 0.0, 0.0, 0.0, 0.0, 0.0, 1.6670453244457192E9, 0.0, 2022-10-29 14:08:44.445
51.0, -322.96093062357977, -341.7015693015419, 1185.3519412060268, -261.1403843560256, 0.0, 0.01600000075995922, 1.008000047877431, 0.0, 0.0, 0.0, 0.0, 0.0, 1.6670453244457192E9, 0.0, 2022-10-29 14:08:44.445
52.0, -533.9735659235157, -572.8909648624249, 1409.530894299969, -366.6766212056391, 0.0, 0.01600000075995922, 1.008000047877431, 0.0, 0.0, 0.0, 0.0, 0.0, 1.6670453244464023E9, 0.0, 2022-10-29 14:08:44.446
52.0, -734.8286329437979, -680.9254548824392, 1454.2713174698874, -190.98547103721648, 0.0, 0.01600000075995922, 1.008000047877431, 0.0, 0.0, 0.0, 0.0, 0.0, 1.6670453244464023E9, 0.0, 2022-10-29 14:08:44.446
53.0, -734.9389599924907, -735.0287175914273, 1555.8432603664696, -280.5579449259676, 0.0, 0.01600000075995922, 1.008000047877431, 0.0, 0.0, 0.0, 0.0, 0.0, 1.6670453244600315E9, 0.0, 2022-10-29 14:08:44.460
53.0, -821.9327728617936, -841.5560279292986, 1666.759343302343, -259.54157712496817, 0.0, 0.01600000075995922, 1.008000047877431, 0.0, 0.0, 0.0, 0.0, 0.0, 1.6670453244600315E9, 0.0, 2022-10-29 14:08:44.460
54.0, -1059.2518644500524, -599.5003530471586, 1849.0102779930457, -392.3678639512509, 0.0, 0.01600000075995922, 1.008000047877431, 0.0, 0.0, 0.0, 0.0, 0.0, 1.6670453244757257E9, 0.0, 2022-10-29 14:08:44.475
54.0, -1171.190810023807, -618.6149817206897, 1999.9900392042473, -616.2120959991589, 0.0, 0.01600000075995922, 1.008000047877431, 0.0, 0.0, 0.0, 0.0, 0.0, 1.6670453244757257E9, 0.0, 2022-10-29 14:08:44.475
55.0, -1258.2500711423345, -759.4465244021267, 2092.066376113333, -781.0163973965682, 0.0, 0.01600000075995922, 1.008000047877431, 0.0, 0.0, 0.0, 0.0, 0.0, 1.667045324476462E9, 0.0, 2022-10-29 14:08:44.476
55.0, -1310.1262234277092, -833.8106951210648, 2161.727622637991, -745.2087252708152, 0.0, 0.01600000075995922, 1.008000047877431, 0.0, 0.0, 0.0, 0.0, 0.0, 1.667045324476462E9, 0.0, 2022-10-29 14:08:44.476
56.0, -1065.7518105730414, -613.5885561802424, 2326.737618532963, -917.8051082259044, 0.0, 0.01600000075995922, 1.008000047877431, 0.0, 0.0, 0.0, 0.0, 0.0, 1.6670453244900398E9, 0.0, 2022-10-29 14:08:44.490
56.0, -1141.5895018745214, -619.6883330079727, 2529.0998652353883, -1079.1182130146772, 0.0, 0.01600000075995922, 1.008000047877431, 0.0, 0.0, 0.0, 0.0, 0.0, 1.6670453244900398E9, 0.0, 2022-10-29 14:08:44.490
57.0, -1235.1636687158607, -735.3802681872621, 2510.5854905047454, -1288.4385435846634, 0.0, 0.01600000075995922, 1.008000047877431, 0.0, 0.0, 0.0, 0.0, 0.0, 1.6670453245056992E9, 0.0, 2022-10-29 14:08:44.505
57.0, -1343.1607597363181, -863.2885865718126, 2611.2430278621614, -1281.8170507131144, 0.0, 0.01600000075995922, 1.008000047877431, 0.0, 0.0, 0.0, 0.0, 0.0, 1.6670453245056992E9, 0.0, 2022-10-29 14:08:44.505
58.0, -1550.6541491779499, -1095.0801060255617, 2834.8684757626615, -1391.9421448083594, 0.0, 0.01600000075995922, 1.008000047877431, 0.0, 0.0, 0.0, 0.0, 0.0, 1.6670453245064807E9, 0.0, 2022-10-29 14:08:44.506
58.0, -1596.108893239405, -1056.2113257860765, 3030.027675150428, -1558.962336929515, 0.0, 0.01600000075995922, 1.008000047877431, 0.0, 0.0, 0.0, 0.0, 0.0, 1.6670453245064807E9, 0.0, 2022-10-29 14:08:44.506
59.0, -1735.9456225326285, -1268.482437421102, 3047.7174019408412, -1767.5309476084076, 0.0, 0.01600000075995922, 1.008000047877431, 0.0, 0.0, 0.0, 0.0, 0.0, 1.6670453245200863E9, 0.0, 2022-10-29 14:08:44.520
59.0, -1824.9627212779596, -1351.231463840697, 3111.3574095368385, -1758.878689060919, 0.0, 0.01600000075995922, 1.008000047877431, 0.0, 0.0, 0.0, 0.0, 0.0, 1.6670453245200863E9, 0.0, 2022-10-29 14:08:44.520
60.0, -2067.5027132043615, -1131.5553502934054, 3276.6478979284875, -1897.1914091221988, 0.0, 0.01600000075995922, 1.008000047877431, 0.0, 0.0, 0.0, 0.0, 0.0, 1.667045324535719E9, 0.0, 2022-10-29 14:08:44.535
60.0, -2019.617034171708, -995.8717799009755, 3081.0230809962377, -1954.2435829462484, 0.0, 0.01600000075995922, 1.008000047877431, 0.0, 0.0, 0.0, 0.0, 0.0, 1.667045324535719E9, 0.0, 2022-10-29 14:08:44.535
61.0, -2241.7689614896663, -772.5548737468198, 3059.019379606936, -1745.8974963147193, 0.0, 0.01600000075995922, 1.008000047877431, 0.0, 0.0, 0.0, 0.0, 0.0, 1.667045324536394E9, 0.0, 2022-10-29 14:08:44.536
61.0, -2318.7510621775873, -866.4862010339275, 3102.9875134360045, -1773.5503165870905, 0.0, 0.01600000075995922, 1.008000047877431, 0.0, 0.0, 0.0, 0.0, 0.0, 1.667045324536394E9, 0.0, 2022-10-29 14:08:44.536
62.0, -2092.5787424072623, -651.2194295343943, 3245.7114454950206, -1934.25007778313, 0.0, 0.01600000075995922, 1.008000047877431, 0.0, 0.0, 0.0, 0.0, 0.0, 1.6670453245663989E9, 0.0, 2022-10-29 14:08:44.566
62.0, -1992.4877998931333, -470.399006576743, 3120.2695911312476, -1965.4184040138498, 0.0, 0.01600000075995922, 1.008000047877431, 0.0, 0.0, 0.0, 0.0, 0.0, 1.6670453245663989E9, 0.0, 2022-10-29 14:08:44.566
63.0, -2216.143166993279, -270.41907614609227, 3042.088852507528, -1794.819127635099, 0.0, 0.01600000075995922, 1.008000047877431, 0.0, 0.0, 0.0, 0.0, 0.0, 1.6670453245671892E9, 0.0, 2022-10-29 14:08:44.567
63.0, -2329.4696154505946, -383.5435700058006, 3075.506728561595, -1784.7905859039165, 0.0, 0.01600000075995922, 1.008000047877431, 0.0, 0.0, 0.0, 0.0, 0.0, 1.6670453245671892E9, 0.0, 2022-10-29 14:08:44.567
64.0, -2097.8482614448294, -167.40540181659162, 3254.717124588322, -1940.8453913549893, 0.0, 0.01600000075995922, 1.008000047877431, 0.0, 0.0, 0.0, 0.0, 0.0, 1.667045324567919E9, 0.0, 2022-10-29 14:08:44.567
64.0, -1959.5093620838597, 37.72811075299978, 3171.9961474183947, -1932.0790658588521, 0.0, 0.01600000075995922, 1.008000047877431, 0.0, 0.0, 0.0, 0.0, 0.0, 1.667045324567919E9, 0.0, 2022-10-29 14:08:44.567
65.0, -1731.2931869877502, 231.60452445596457, 2969.8975636628456, -1787.0607051770203, 0.0, 0.01600000075995922, 1.008000047877431, 0.0, 0.0, 0.0, 0.0, 0.0, 1.6670453245964499E9, 0.0, 2022-10-29 14:08:44.596
65.0, -1870.4473845390603, 85.71850698441267, 3042.098202257417, -1811.003544693347, 0.0, 0.01600000075995922, 1.008000047877431, 0.0, 0.0, 0.0, 0.0, 0.0, 1.6670453245964499E9, 0.0, 2022-10-29 14:08:44.596
66.0, -2090.7574111288413, 313.2484104386531, 3285.627397722099, -1928.2905472037382, 0.0, 0.01600000075995922, 1.008000047877431, 0.0, 0.0, 0.0, 0.0, 0.0, 1.66704532459711E9, 0.0, 2022-10-29 14:08:44.597
66.0, -1955.2645756341517, 538.4240468707867, 3200.6998795783147, -1898.696718854364, 0.0, 0.01600000075995922, 1.008000047877431, 0.0, 0.0, 0.0, 0.0, 0.0, 1.66704532459711E9, 0.0, 2022-10-29 14:08:44.597
67.0, -1728.3237064229324, 711.3420612220652, 2980.702134634834, -1761.4461303805, 0.0, 0.01600000075995922, 1.008000047877431, 0.0, 0.0, 0.0, 0.0, 0.0, 1.6670453245978112E9, 0.0, 2022-10-29 14:08:44.597
67.0, -1881.8690390037373, 558.6419460312463, 3022.583404288627, -1827.4217054988258, 0.0, 0.01600000075995922, 1.008000047877431, 0.0, 0.0, 0.0, 0.0, 0.0, 1.6670453245978112E9, 0.0, 2022-10-29 14:08:44.597
68.0, -1654.3540951493196, 754.8389676567167, 3206.2854201621376, -1992.781382039655, 0.0, 0.01600000075995922, 1.008000047877431, 0.0, 0.0, 0.0, 0.0, 0.0, 1.6670453246100533E9, 0.0, 2022-10-29 14:08:44.610
68.0, -1409.820736546535, 607.7243930497207, 3255.210791382473, -1845.3246065867133, 0.0, 0.01600000075995922, 1.008000047877431, 0.0, 0.0, 0.0, 0.0, 0.0, 1.6670453246100533E9, 0.0, 2022-10-29 14:08:44.610
69.0, -1263.8300018762238, 689.3439696826972, 3072.709283394739, -1784.8990430026315, 0.0, 0.01600000075995922, 1.008000047877431, 0.0, 0.0, 0.0, 0.0, 0.0, 1.6670453246258023E9, 0.0, 2022-10-29 14:08:44.625
69.0, -1372.9453229834326, 579.6302645825781, 3041.496078364551, -1800.7823981144466, 0.0, 0.01600000075995922, 1.008000047877431, 0.0, 0.0, 0.0, 0.0, 0.0, 1.6670453246258023E9, 0.0, 2022-10-29 14:08:44.625
70.0, -1181.1913025053218, 757.18762482889, 3178.744796888437, -1990.6159799653105, 0.0, 0.01600000075995922, 0.9920000471174717, 0.0, 0.0, 0.0, 0.0, 0.0, 1.667045324626442E9, 0.0, 2022-10-29 14:08:44.626
70.0, -1346.2648766995408, 629.9506184863858, 3291.6149775511585, -1779.7978194630705, 0.0, 0.01600000075995922, 0.9920000471174717, 0.0, 0.0, 0.0, 0.0, 0.0, 1.667045324626442E9, 0.0, 2022-10-29 14:08:44.626
71.0, -1240.9754732470028, 725.0113955601119, 3465.2510526939295, -1763.1552646602504, 0.0, 0.01600000075995922, 0.9920000471174717, 0.0, 0.0, 0.0, 0.0, 0.0, 1.6670453246400075E9, 0.0, 2022-10-29 14:08:44.640
71.0, -1415.9092936743982, 541.531903733965, 3485.86725119967, -1849.502074837219, 0.0, 0.01600000075995922, 0.9920000471174717, 0.0, 0.0, 0.0, 0.0, 0.0, 1.6670453246400075E9, 0.0, 2022-10-29 14:08:44.640
72.0, -1179.7252617226914, 744.9207529742271, 3680.2915602461435, -2003.5410742121749, 0.0, 0.01600000075995922, 0.9920000471174717, 0.0, 0.0, 0.0, 0.0, 0.0, 1.6670453246556747E9, 0.0, 2022-10-29 14:08:44.655
72.0, -1339.6265542781912, 680.36072998913, 3814.976577350404, -1779.8726174621843, 0.0, 0.01600000075995922, 0.9920000471174717, 0.0, 0.0, 0.0, 0.0, 0.0, 1.6670453246556747E9, 0.0, 2022-10-29 14:08:44.655
73.0, -1237.0111792939715, 716.723777258303, 3990.8640722665004, -1760.2157032950781, 0.0, 0.01600000075995922, 0.9920000471174717, 0.0, 0.0, 0.0, 0.0, 0.0, 1.6670453246565611E9, 0.0, 2022-10-29 14:08:44.656
73.0, -1419.1592667358927, 540.4996913461946, 3970.414299308788, -1850.261274528224, 0.0, 0.01600000075995922, 0.9920000471174717, 0.0, 0.0, 0.0, 0.0, 0.0, 1.6670453246565611E9, 0.0, 2022-10-29 14:08:44.656
74.0, -1235.2852154644206, 701.1452239928767, 4115.236315242946, -2062.152786317747, 0.0, 0.01600000075995922, 0.9920000471174717, 0.0, 0.0, 0.0, 0.0, 0.0, 1.667045324670046E9, 0.0, 2022-10-29 14:08:44.670
74.0, -1294.7701942096464, 722.223300143145, 3870.929220587481, -2218.3777572168037, 0.0, 0.01600000075995922, 0.9920000471174717, 0.0, 0.0, 0.0, 0.0, 0.0, 1.667045324670046E9, 0.0, 2022-10-29 14:08:44.670
75.0, -1242.5985898277722, 693.6111955321394, 4009.4251957465895, -2263.9353485270403, 0.0, 0.01600000075995922, 0.9920000471174717, 0.0, 0.0, 0.0, 0.0, 0.0, 1.667045324685738E9, 0.0, 2022-10-29 14:08:44.685
75.0, -1418.070955848787, 532.2681715437211, 3960.4100669273175, -2340.173209123779, 0.0, 0.01600000075995922, 0.9920000471174717, 0.0, 0.0, 0.0, 0.0, 0.0, 1.667045324685738E9, 0.0, 2022-10-29 14:08:44.685
76.0, -1210.882368253544, 711.2878326727077, 4154.142494481988, -2537.6848055836745, 0.0, 0.01600000075995922, 0.9920000471174717, 0.0, 0.0, 0.0, 0.0, 0.0, 1.6670453246864307E9, 0.0, 2022-10-29 14:08:44.686
76.0, -1283.1054462478496, 719.0182058811188, 4379.923994706944, -2684.574986193329, 0.0, 0.01600000075995922, 0.9920000471174717, 0.0, 0.0, 0.0, 0.0, 0.0, 1.6670453246864307E9, 0.0, 2022-10-29 14:08:44.686
77.0, -1238.6380357746966, 724.7477326132357, 4430.532320907339, -2754.771038411651, 0.0, 0.01600000075995922, 0.9920000471174717, 0.0, 0.0, 0.0, 0.0, 0.0, 1.6670453247001467E9, 0.0, 2022-10-29 14:08:44.700
77.0, -1449.2392820795067, 511.70059173740447, 4420.3523132279515, -2860.008083264809, 0.0, 0.01600000075995922, 0.9920000471174717, 0.0, 0.0, 0.0, 0.0, 0.0, 1.6670453247001467E9, 0.0, 2022-10-29 14:08:44.700
78.0, -1242.9295709738508, 686.7260397137143, 4596.611928189639, -3044.631984477397, 0.0, 0.01600000075995922, 0.9920000471174717, 0.0, 0.0, 0.0, 0.0, 0.0, 1.667045324715727E9, 0.0, 2022-10-29 14:08:44.715
78.0, -1241.0558810960501, 757.2642927779816, 4409.226110859774, -3139.619833501987, 0.0, 0.01600000075995922, 0.9920000471174717, 0.0, 0.0, 0.0, 0.0, 0.0, 1.667045324715727E9, 0.0, 2022-10-29 14:08:44.715
79.0, -1271.029309290927, 705.5844852402806, 4503.834360038862, -3245.9320995924063, 0.0, 0.01600000075995922, 0.9920000471174717, 0.0, 0.0, 0.0, 0.0, 0.0, 1.667045324716454E9, 0.0, 2022-10-29 14:08:44.716
79.0, -1444.6616445337422, 505.55219621025026, 4421.4256645152345, -3344.844973620493, 0.0, 0.01600000075995922, 0.9920000471174717, 0.0, 0.0, 0.0, 0.0, 0.0, 1.667045324716454E9, 0.0, 2022-10-29 14:08:44.716
80.0, -1281.8320103129372, 650.5911263418384, 4548.475675859954, -3575.753876684699, 0.0, 0.01600000075995922, 0.9920000471174717, 0.0, 0.0, 0.0, 0.0, 0.0, 1.6670453247300608E9, 0.0, 2022-10-29 14:08:44.730
80.0, -1186.543099341914, 787.7407375168987, 4482.382293893024, -3593.4641729248688, 0.0, 0.01600000075995922, 0.9920000471174717, 0.0, 0.0, 0.0, 0.0, 0.0, 1.6670453247300608E9, 0.0, 2022-10-29 14:08:44.730
81.0, -1240.6426221509464, 700.4683021008968, 4447.389919957612, -3745.762248870451, 0.0, 0.01600000075995922, 0.9920000471174717, 0.0, 0.0, 0.0, 0.0, 0.0, 1.6670453247458892E9, 0.0, 2022-10-29 14:08:44.745
81.0, -1464.9169426937588, 488.32247711438686, 4391.130604924168, -3863.3484433772974, 0.0, 0.01600000075995922, 0.9920000471174717, 0.0, 0.0, 0.0, 0.0, 0.0, 1.6670453247458892E9, 0.0, 2022-10-29 14:08:44.745
82.0, -1257.545100000687, 663.4489023895003, 4583.123978999443, -4058.21593056852, 0.0, 0.01600000075995922, 0.9920000471174717, 0.0, 0.0, 0.0, 0.0, 0.0, 1.6670453247464137E9, 0.0, 2022-10-29 14:08:44.746
82.0, -1166.4336572801694, 831.6770821963437, 4500.863009524066, -4071.797377257608, 0.0, 0.01600000075995922, 0.9920000471174717, 0.0, 0.0, 0.0, 0.0, 0.0, 1.6670453247464137E9, 0.0, 2022-10-29 14:08:44.746
83.0, -1231.8575971550308, 708.4342890065163, 4438.184156216681, -4212.475584040862, 0.0, 0.01600000075995922, 0.9920000471174717, 0.0, 0.0, 0.0, 0.0, 0.0, 1.6670453247600093E9, 0.0, 2022-10-29 14:08:44.760
83.0, -1475.8000515648164, 481.91602849029005, 4374.942447965965, -4362.759723860305, 0.0, 0.01600000075995922, 0.9920000471174717, 0.0, 0.0, 0.0, 0.0, 0.0, 1.6670453247600093E9, 0.0, 2022-10-29 14:08:44.760
84.0, -1296.9262465341017, 629.344754693564, 4528.781362693291, -4571.767772783991, 0.0, 0.01600000075995922, 0.9920000471174717, 0.0, 0.0, 0.0, 0.0, 0.0, 1.6670453247757332E9, 0.0, 2022-10-29 14:08:44.775
84.0, -1144.64500013832, 853.9668859322555, 4526.70010836795, -4510.912120705005, 0.0, 0.01600000075995922, 0.9920000471174717, 0.0, 0.0, 0.0, 0.0, 0.0, 1.6670453247757332E9, 0.0, 2022-10-29 14:08:44.775
85.0, -1254.34935548855, 677.6549123711884, 4498.353536653798, -4726.455644801259, 0.0, 0.01600000075995922, 0.9920000471174717, 0.0, 0.0, 0.0, 0.0, 0.0, 1.6670453247764409E9, 0.0, 2022-10-29 14:08:44.776
85.0, -1468.7914790478535, 488.5693105114624, 4379.151705366094, -4841.128457242623, 0.0, 0.01600000075995922, 0.9920000471174717, 0.0, 0.0, 0.0, 0.0, 0.0, 1.6670453247764409E9, 0.0, 2022-10-29 14:08:44.776
86.0, -1301.1523334840313, 638.9974364791997, 4530.473667423241, -5085.549618846737, 0.0, 0.01600000075995922, 0.9920000471174717, 0.0, 0.0, 0.0, 0.0, 0.0, 1.6670453247900646E9, 0.0, 2022-10-29 14:08:44.790
86.0, -1086.0594673324376, 415.33084967918694, 4580.670604628511, -4930.93841477856, 0.0, 0.01600000075995922, 0.9920000471174717, 0.0, 0.0, 0.0, 0.0, 0.0, 1.6670453247900646E9, 0.0, 2022-10-29 14:08:44.790
87.0, -1254.7607444836758, 200.86441677017137, 4402.051112794783, -4721.182385863736, 0.0, 0.01600000075995922, 0.9920000471174717, 0.0, 0.0, 0.0, 0.0, 0.0, 1.667045324805741E9, 0.0, 2022-10-29 14:08:44.805
87.0, -1014.4291634811088, -34.4800076414831, 4335.896022478584, -4894.175198214129, 0.0, 0.01600000075995922, 0.9920000471174717, 0.0, 0.0, 0.0, 0.0, 0.0, 1.667045324805741E9, 0.0, 2022-10-29 14:08:44.805
88.0, -830.2596601131372, 119.8002152806148, 4520.33105874341, -5103.531057833694, 0.0, 0.01600000075995922, 0.9920000471174717, 0.0, 0.0, 0.0, 0.0, 0.0, 1.6670453248064644E9, 0.0, 2022-10-29 14:08:44.806
88.0, -1051.5214912416413, -43.119176539126784, 4623.406441422179, -4976.232343141921, 0.0, 0.01600000075995922, 0.9920000471174717, 0.0, 0.0, 0.0, 0.0, 0.0, 1.6670453248064644E9, 0.0, 2022-10-29 14:08:44.806
89.0, -1262.4462388926186, 193.94934175210074, 4479.055652882438, -4748.573413139209, 0.0, 0.01600000075995922, 0.9920000471174717, 0.0, 0.0, 0.0, 0.0, 0.0, 1.6670453248199766E9, 0.0, 2022-10-29 14:08:44.819
89.0, -1499.3502015857957, -30.616690987255424, 4355.650174044538, -4884.328041630797, 0.0, 0.01600000075995922, 0.9920000471174717, 0.0, 0.0, 0.0, 0.0, 0.0, 1.6670453248199766E9, 0.0, 2022-10-29 14:08:44.819
90.0, -1342.268793596886, 99.75435151811689, 4493.818907957524, -5129.168072029948, 0.0, 0.01600000075995922, 0.9920000471174717, 0.0, 0.0, 0.0, 0.0, 0.0, 1.6670453248357623E9, 0.0, 2022-10-29 14:08:44.835
90.0, -1510.345507455524, -17.601839141454548, 4650.318761503324, -4900.323593741283, 0.0, 0.01600000075995922, 0.9920000471174717, 0.0, 0.0, 0.0, 0.0, 0.0, 1.6670453248357623E9, 0.0, 2022-10-29 14:08:44.835
91.0, -1743.4104628441855, 203.84137713490054, 4423.125449045096, -4729.383986466564, 0.0, 0.01600000075995922, 0.9920000471174717, 0.0, 0.0, 0.0, 0.0, 0.0, 1.667045324836412E9, 0.0, 2022-10-29 14:08:44.836
91.0, -1519.8822523425333, 441.8430004650727, 4327.496207178105, -4893.176644925959, 0.0, 0.01600000075995922, 0.9920000471174717, 0.0, 0.0, 0.0, 0.0, 0.0, 1.667045324836412E9, 0.0, 2022-10-29 14:08:44.836
92.0, -1332.0813061175868, 598.928148353938, 4512.716622433625, -5128.809041634202, 0.0, 0.01600000075995922, 0.9920000471174717, 0.0, 0.0, 0.0, 0.0, 0.0, 1.6670453248500009E9, 0.0, 2022-10-29 14:08:44.850
92.0, -1503.8268618327565, 514.7560900012031, 4681.176676037721, -5351.338698847685, 0.0, 0.01600000075995922, 0.9920000471174717, 0.0, 0.0, 0.0, 0.0, 0.0, 1.6670453248500009E9, 0.0, 2022-10-29 14:08:44.850
93.0, -1740.8149722749367, 696.9752355422825, 4922.07111198362, -5218.246879124548, 0.0, 0.01600000075995922, 0.9920000471174717, 0.0, 0.0, 0.0, 0.0, 0.0, 1.6670453248658264E9, 0.0, 2022-10-29 14:08:44.865
93.0, -1521.5427679228596, 931.330456415657, 4804.032389582135, -5394.059576041531, 0.0, 0.01600000075995922, 0.9920000471174717, 0.0, 0.0, 0.0, 0.0, 0.0, 1.6670453248658264E9, 0.0, 2022-10-29 14:08:44.865
94.0, -1379.2040455592796, 1055.2576512973756, 4929.111473650206, -5184.597129273228, 0.0, 0.01600000075995922, 0.9920000471174717, 0.0, 0.0, 0.0, 0.0, 0.0, 1.6670453248665104E9, 0.0, 2022-10-29 14:08:44.866
94.0, -1454.131071221549, 1043.6957505843602, 4740.973936429247, -5320.607940911781, 0.0, 0.01600000075995922, 0.9920000471174717, 0.0, 0.0, 0.0, 0.0, 0.0, 1.6670453248665104E9, 0.0, 2022-10-29 14:08:44.866
95.0, -1266.0290630501695, 1161.7195133860223, 4948.160654074512, -5168.936298208777, 0.0, 0.01600000075995922, 0.9920000471174717, 0.0, 0.0, 0.0, 0.0, 0.0, 1.6670453248800647E9, 0.0, 2022-10-29 14:08:44.880
95.0, -1036.2028610231355, 1406.0901863407344, 4796.6909659691155, -5386.594735729974, 0.0, 0.01600000075995922, 0.9920000471174717, 0.0, 0.0, 0.0, 0.0, 0.0, 1.6670453248800647E9, 0.0, 2022-10-29 14:08:44.880
96.0, -871.5705950236879, 1540.5489394976757, 4965.463301219512, -5148.241561803967, 0.0, 0.01600000075995922, 0.9920000471174717, 0.0, 0.0, 0.0, 0.0, 0.0, 1.6670453248957913E9, 0.0, 2022-10-29 14:08:44.895
96.0, -897.1533806705847, 1582.5966346994974, 4779.958653567359, -5261.910211107228, 0.0, 0.01600000075995922, 0.9920000471174717, 0.0, 0.0, 0.0, 0.0, 0.0, 1.6670453248957913E9, 0.0, 2022-10-29 14:08:44.895
97.0, -759.5213224012405, 1654.638327545952, 4894.459430610761, -5220.359922599513, 0.0, 0.01600000075995922, 0.9920000471174717, 0.0, 0.0, 0.0, 0.0, 0.0, 1.6670453248964367E9, 0.0, 2022-10-29 14:08:44.896
97.0, -567.3446932281367, 1880.5114553198218, 4769.50189329125, -5430.9200300048105, 0.0, 0.01600000075995922, 0.9920000471174717, 0.0, 0.0, 0.0, 0.0, 0.0, 1.6670453248964367E9, 0.0, 2022-10-29 14:08:44.896
98.0, -416.29200396779925, 2009.943782936316, 4925.03872259846, -5664.424423638266, 0.0, 0.01600000075995922, 0.9920000471174717, 0.0, 0.0, 0.0, 0.0, 0.0, 1.6670453249100523E9, 0.0, 2022-10-29 14:08:44.910
98.0, -371.2112499019131, 2095.441635823343, 4840.971381444484, -5697.614165795036, 0.0, 0.01600000075995922, 0.9920000471174717, 0.0, 0.0, 0.0, 0.0, 0.0, 1.6670453249100523E9, 0.0, 2022-10-29 14:08:44.910
99.0, -290.8781988536939, 2128.8165030279197, 4970.065248114988, -5697.649694844615, 0.0, 0.01600000075995922, 0.9920000471174717, 0.0, 0.0, 0.0, 0.0, 0.0, 1.6670453249257855E9, 0.0, 2022-10-29 14:08:44.925
99.0, -75.016783261206, 2373.5125472787768, 4773.297891746275, -5904.604538692627, 0.0, 0.01600000075995922, 0.9920000471174717, 0.0, 0.0, 0.0, 0.0, 0.0, 1.6670453249257855E9, 0.0, 2022-10-29 14:08:44.925
100.0, 61.46899567171931, 2477.5172950965352, 4889.954721114133, -5689.154512095265, 0.0, 0.01600000075995922, 0.9920000471174717, 0.0, 0.0, 0.0, 0.0, 0.0, 1.6670453249265268E9, 0.0, 2022-10-29 14:08:44.926
100.0, 152.46076159365475, 2613.672092883382, 4871.040177088231, -5657.421460971236, 0.0, 0.01600000075995922, 0.9920000471174717, 0.0, 0.0, 0.0, 0.0, 0.0, 1.6670453249265268E9, 0.0, 2022-10-29 14:08:44.926
0.0, 11806.718304014765, 11170.523922552355, 13816.278747205622, 12357.573778338265, 0.0, 0.01600000075995922, 0.9920000471174717, 0.0, 0.0, 0.0, 0.0, 0.0, 1.6670453249407485E9, 0.0, 2022-10-29 14:08:44.940
1.0, 11977.618642339949, 11362.442498628516, 13669.891583140008, 12142.032124191988, 0.0, 0.01600000075995922, 0.9920000471174717, 0.0, 0.0, 0.0, 0.0, 0.0, 1.6670453249415004E9, 0.0, 2022-10-29 14:08:44.941
1.0, 12137.101066100411, 11479.76129028853, 13830.978423981462, 12382.876071488485, 0.0, 0.01600000075995922, 0.9920000471174717, 0.0, 0.0, 0.0, 0.0, 0.0, 1.6670453249415004E9, 0.0, 2022-10-29 14:08:44.941
2.0, 12242.214694255032, 11638.119874112308, 13835.036215433385, 12436.180865556933, 0.0, 0.01600000075995922, 0.9920000471174717, 0.0, 0.0, 0.0, 0.0, 0.0, 1.667045324955044E9, 0.0, 2022-10-29 14:08:44.955
2.0, 12275.87379385624, 11632.99808112299, 13836.883726011496, 12389.83041545609, 0.0, 0.01600000075995922, 0.9920000471174717, 0.0, 0.0, 0.0, 0.0, 0.0, 1.667045324955044E9, 0.0, 2022-10-29 14:08:44.955
3.0, 12465.645667357836, 11835.526753373444, 13649.99344542576, 12630.969814849086, 0.0, 0.01600000075995922, 0.9920000471174717, 0.0, 0.0, 0.0, 0.0, 0.0, 1.6670453249708068E9, 0.0, 2022-10-29 14:08:44.970
3.0, 12586.292969978414, 11921.071355009917, 13756.245873116888, 12830.207375138532, 0.0, 0.01600000075995922, 0.9920000471174717, 0.0, 0.0, 0.0, 0.0, 0.0, 1.6670453249708068E9, 0.0, 2022-10-29 14:08:44.970
4.0, 12770.374585697427, 11695.650755130686, 13860.55168288108, 12964.25286935037, 0.0, 0.01600000075995922, 0.9920000471174717, 0.0, 0.0, 0.0, 0.0, 0.0, 1.6670453249714727E9, 0.0, 2022-10-29 14:08:44.971
4.0, 12766.00825249916, 11640.743413931224, 13859.985088037793, 12863.89452398941, 0.0, 0.01600000075995922, 0.9920000471174717, 0.0, 0.0, 0.0, 0.0, 0.0, 1.6670453249714727E9, 0.0, 2022-10-29 14:08:44.971
5.0, 12945.5888986215, 11839.333971528336, 13640.740932935383, 13108.306335843634, 0.0, 0.01600000075995922, 0.9920000471174717, 0.0, 0.0, 0.0, 0.0, 0.0, 1.6670453249851081E9, 0.0, 2022-10-29 14:08:44.985
5.0, 13078.910722191911, 11921.000296910759, 13783.921132788993, 13307.91788612865, 0.0, 0.01600000075995922, 0.9920000471174717, 0.0, 0.0, 0.0, 0.0, 0.0, 1.6670453249851081E9, 0.0, 2022-10-29 14:08:44.985
6.0, 13298.80561988661, 11693.706007153727, 13894.584772477858, 13486.535508012399, 0.0, 0.01600000075995922, 0.9920000471174717, 0.0, 0.0, 0.0, 0.0, 0.0, 1.6670453250007493E9, 0.0, 2022-10-29 14:08:45.000
6.0, 13264.673422941007, 11633.218735220376, 13786.888743403833, 13365.28982139891, 0.0, 0.01600000075995922, 0.9920000471174717, 0.0, 0.0, 0.0, 0.0, 0.0, 1.6670453250007493E9, 0.0, 2022-10-29 14:08:45.000
7.0, 13410.703426560853, 11815.20039711427, 13616.207189226057, 13580.683749496937, 0.0, 0.01600000075995922, 0.9920000471174717, 0.0, 0.0, 0.0, 0.0, 0.0, 1.6670453250015082E9, 0.0, 2022-10-29 14:08:45.001
7.0, 13548.756223575212, 11902.050223835278, 13751.78417246975, 13794.607896912377, 0.0, 0.01600000075995922, 0.9920000471174717, 0.0, 0.0, 0.0, 0.0, 0.0, 1.6670453250015082E9, 0.0, 2022-10-29 14:08:45.001
8.0, 13327.07552365167, 11747.28381391894, 13936.643687379546, 14014.592552206013, 0.0, 0.01600000075995922, 0.9920000471174717, 0.0, 0.0, 0.0, 0.0, 0.0, 1.6670453250150323E9, 0.0, 2022-10-29 14:08:45.015
8.0, 13241.972230209969, 11620.619012269657, 13868.231567440089, 13819.150990371592, 0.0, 0.01600000075995922, 0.9920000471174717, 0.0, 0.0, 0.0, 0.0, 0.0, 1.6670453250150323E9, 0.0, 2022-10-29 14:08:45.015
9.0, 13420.494484644849, 11825.903990787454, 13627.19875519583, 13575.634884556755, 0.0, 0.01600000075995922, 0.9920000471174717, 0.0, 0.0, 0.0, 0.0, 0.0, 1.6670453250307226E9, 0.0, 2022-10-29 14:08:45.030
9.0, 13506.424295976758, 11870.253594412003, 13711.224957450293, 13733.011744642165, 0.0, 0.01600000075995922, 0.9920000471174717, 0.0, 0.0, 0.0, 0.0, 0.0, 1.6670453250307226E9, 0.0, 2022-10-29 14:08:45.030
10.0, 13353.329621340614, 11752.246661160141, 13475.1157234977, 13531.324549881741, 0.0, 0.01600000075995922, 1.008000047877431, 0.0, 0.0, 0.0, 0.0, 0.0, 1.6670453250315056E9, 0.0, 2022-10-29 14:08:45.031
10.0, 13248.169244436547, 11622.032694452908, 13305.543049656786, 13335.800710248295, 0.0, 0.01600000075995922, 1.008000047877431, 0.0, 0.0, 0.0, 0.0, 0.0, 1.6670453250315056E9, 0.0, 2022-10-29 14:08:45.031
11.0, 13396.637662827503, 11803.098080857657, 13099.54562019743, 13559.029728753492, 0.0, 0.01600000075995922, 1.008000047877431, 0.0, 0.0, 0.0, 0.0, 0.0, 1.6670453250449958E9, 0.0, 2022-10-29 14:08:45.044
11.0, 13521.619509496726, 11895.094009917695, 13252.53931753477, 13767.071013538633, 0.0, 0.01600000075995922, 1.008000047877431, 0.0, 0.0, 0.0, 0.0, 0.0, 1.6670453250449958E9, 0.0, 2022-10-29 14:08:45.044
12.0, 13373.77565439837, 11802.884906560183, 13038.387036222033, 13567.5791400522, 0.0, 0.01600000075995922, 1.008000047877431, 0.0, 0.0, 0.0, 0.0, 0.0, 1.6670453250607288E9, 0.0, 2022-10-29 14:08:45.060
12.0, 13244.0964933848, 11649.446161128115, 12816.80357369734, 13330.620948809665, 0.0, 0.01600000075995922, 1.008000047877431, 0.0, 0.0, 0.0, 0.0, 0.0, 1.6670453250607288E9, 0.0, 2022-10-29 14:08:45.060
13.0, 13387.983534330036, 11788.5012513306, 12604.152862216812, 13541.403580262326, 0.0, 0.01600000075995922, 1.008000047877431, 0.0, 0.0, 0.0, 0.0, 0.0, 1.6670453250614288E9, 0.0, 2022-10-29 14:08:45.061
13.0, 13492.83349953778, 11854.478696398903, 12718.375016713515, 13717.921248320956, 0.0, 0.01600000075995922, 1.008000047877431, 0.0, 0.0, 0.0, 0.0, 0.0, 1.6670453250614288E9, 0.0, 2022-10-29 14:08:45.061
14.0, 13430.502456926275, 11834.9395890804, 12583.706829159055, 13606.212306594476, 0.0, 0.01600000075995922, 1.008000047877431, 0.0, 0.0, 0.0, 0.0, 0.0, 1.6670453250750036E9, 0.0, 2022-10-29 14:08:45.075
14.0, 13250.716116306372, 11631.524560540449, 12824.268414008897, 13814.887504422106, 0.0, 0.01600000075995922, 1.008000047877431, 0.0, 0.0, 0.0, 0.0, 0.0, 1.6670453250750036E9, 0.0, 2022-10-29 14:08:45.075
15.0, 13370.993168831337, 11780.707299822941, 12580.475555597339, 14030.576884616632, 0.0, 0.01600000075995922, 1.008000047877431, 0.0, 0.0, 0.0, 0.0, 0.0, 1.667045325090729E9, 0.0, 2022-10-29 14:08:45.090
15.0, 13489.056200582534, 11851.883205829654, 12731.640441856347, 14210.61005863361, 0.0, 0.01600000075995922, 1.008000047877431, 0.0, 0.0, 0.0, 0.0, 0.0, 1.667045325090729E9, 0.0, 2022-10-29 14:08:45.090
16.0, 13449.845219497103, 11856.756295471918, 12625.264597466681, 14126.995245374274, 0.0, 0.01600000075995922, 1.008000047877431, 0.0, 0.0, 0.0, 0.0, 0.0, 1.6670453250914464E9, 0.0, 2022-10-29 14:08:45.091
16.0, 13245.196023971774, 11635.501944143325, 12802.950984261464, 14290.989858431276, 0.0, 0.01600000075995922, 1.008000047877431, 0.0, 0.0, 0.0, 0.0, 0.0, 1.6670453250914464E9, 0.0, 2022-10-29 14:08:45.091
17.0, 13362.219363535289, 11767.357726931106, 13043.742572958581, 14494.954652264714, 0.0, 0.01600000075995922, 1.008000047877431, 0.0, 0.0, 0.0, 0.0, 0.0, 1.667045325105111E9, 0.0, 2022-10-29 14:08:45.105
17.0, 13464.862787769176, 11823.241182019003, 13167.273338444997, 14681.087603109423, 0.0, 0.01600000075995922, 1.008000047877431, 0.0, 0.0, 0.0, 0.0, 0.0, 1.667045325105111E9, 0.0, 2022-10-29 14:08:45.105
18.0, 13504.831098595634, 11905.290847146884, 13154.776462743059, 14672.562501160428, 0.0, 0.01600000075995922, 1.008000047877431, 0.0, 0.0, 0.0, 0.0, 0.0, 1.6670453251207492E9, 0.0, 2022-10-29 14:08:45.120
18.0, 13708.730444179848, 12109.938172722235, 13384.428759422153, 14790.48154676333, 0.0, 0.01600000075995922, 1.008000047877431, 0.0, 0.0, 0.0, 0.0, 0.0, 1.6670453251207492E9, 0.0, 2022-10-29 14:08:45.120
19.0, 13858.735961452592, 12266.78022711398, 13555.347797247116, 14994.689434093889, 0.0, 0.01600000075995922, 1.008000047877431, 0.0, 0.0, 0.0, 0.0, 0.0, 1.6670453251214373E9, 0.0, 2022-10-29 14:08:45.121
19.0, 13940.735137931071, 12297.55025399942, 13647.186650509015, 15166.19937611185, 0.0, 0.01600000075995922, 1.008000047877431, 0.0, 0.0, 0.0, 0.0, 0.0, 1.6670453251214373E9, 0.0, 2022-10-29 14:08:45.121
20.0, 14026.606980813667, 12413.72650622297, 13680.84949001018, 15213.632527249865, 0.0, 0.01600000075995922, 1.008000047877431, 0.0, 0.0, 0.0, 0.0, 0.0, 1.667045325135038E9, 0.0, 2022-10-29 14:08:45.135
20.0, 14237.24936601799, 12586.23687147908, 13757.076130907051, 15270.748279373161, 0.0, 0.01600000075995922, 1.008000047877431, 0.0, 0.0, 0.0, 0.0, 0.0, 1.667045325135038E9, 0.0, 2022-10-29 14:08:45.135
21.0, 14321.79915426625, 12731.085066712927, 14001.637538759504, 15454.43533564685, 0.0, 0.01600000075995922, 1.008000047877431, 0.0, 0.0, 0.0, 0.0, 0.0, 1.6670453251507442E9, 0.0, 2022-10-29 14:08:45.150
21.0, 14439.836006717756, 12794.021973117255, 14148.097630874254, 15648.190202601254, 0.0, 0.01600000075995922, 1.008000047877431, 0.0, 0.0, 0.0, 0.0, 0.0, 1.6670453251507442E9, 0.0, 2022-10-29 14:08:45.150
22.0, 14545.379723367281, 12942.929829753004, 14219.118331032805, 15752.783984662034, 0.0, 0.01600000075995922, 1.008000047877431, 0.0, 0.0, 0.0, 0.0, 0.0, 1.667045325151478E9, 0.0, 2022-10-29 14:08:45.151
22.0, 14692.858938219957, 13081.560441310517, 14285.969042740762, 15774.47166450508, 0.0, 0.01600000075995922, 1.008000047877431, 0.0, 0.0, 0.0, 0.0, 0.0, 1.667045325151478E9, 0.0, 2022-10-29 14:08:45.151
23.0, 14802.49971527094, 13219.370144827757, 14482.01272846805, 15944.10791664524, 0.0, 0.01600000075995922, 1.008000047877431, 0.0, 0.0, 0.0, 0.0, 0.0, 1.6670453251651027E9, 0.0, 2022-10-29 14:08:45.165
23.0, 14872.994959485717, 13236.893446070142, 14559.456706800498, 16087.198358899914, 0.0, 0.01600000075995922, 1.008000047877431, 0.0, 0.0, 0.0, 0.0, 0.0, 1.6670453251651027E9, 0.0, 2022-10-29 14:08:45.165
24.0, 15083.656044189818, 13441.7090671435, 14749.798915045336, 16277.712602542713, 0.0, 0.01600000075995922, 1.008000047877431, 0.0, 0.0, 0.0, 0.0, 0.0, 1.6670453251807795E9, 0.0, 2022-10-29 14:08:45.180
24.0, 15174.614151012152, 13553.801348615438, 14837.417291207239, 16271.63339516474, 0.0, 0.01600000075995922, 1.008000047877431, 0.0, 0.0, 0.0, 0.0, 0.0, 1.6670453251807795E9, 0.0, 2022-10-29 14:08:45.180
25.0, 15297.69986840384, 13707.53928604396, 14973.798352941405, 16434.646284483373, 0.0, 0.01600000075995922, 1.008000047877431, 0.0, 0.0, 0.0, 0.0, 0.0, 1.66704532518146E9, 0.0, 2022-10-29 14:08:45.181
25.0, 15360.677913707681, 13737.695969336666, 15074.654104996473, 16582.377942583058, 0.0, 0.01600000075995922, 1.008000047877431, 0.0, 0.0, 0.0, 0.0, 0.0, 1.66704532518146E9, 0.0, 2022-10-29 14:08:45.181
26.0, 15593.06781715434, 13508.075461807195, 15257.78578612674, 16800.31687260093, 0.0, 0.01600000075995922, 1.008000047877431, 0.0, 0.0, 0.0, 0.0, 0.0, 1.66704532519509E9, 0.0, 2022-10-29 14:08:45.195
26.0, 15674.784631186165, 13565.707320124377, 15231.810310984496, 16733.8270612387, 0.0, 0.01600000075995922, 1.008000047877431, 0.0, 0.0, 0.0, 0.0, 0.0, 1.66704532519509E9, 0.0, 2022-10-29 14:08:45.195
27.0, 15754.300514094066, 13671.028512726538, 15423.343677365221, 16888.23444075929, 0.0, 0.01600000075995922, 1.008000047877431, 0.0, 0.0, 0.0, 0.0, 0.0, 1.6670453252108364E9, 0.0, 2022-10-29 14:08:45.210
27.0, 15833.173134209588, 13726.250005522277, 15543.66934858961, 17044.84836125374, 0.0, 0.01600000075995922, 1.008000047877431, 0.0, 0.0, 0.0, 0.0, 0.0, 1.6670453252108364E9, 0.0, 2022-10-29 14:08:45.210
28.0, 15630.139575465117, 13543.834515233524, 15315.320407045074, 16801.83527198294, 0.0, 0.01600000075995922, 1.008000047877431, 0.0, 0.0, 0.0, 0.0, 0.0, 1.6670453252114494E9, 0.0, 2022-10-29 14:08:45.211
28.0, 15665.627486144658, 13574.239901873283, 15278.955489825923, 16739.687484469265, 0.0, 0.01600000075995922, 1.008000047877431, 0.0, 0.0, 0.0, 0.0, 0.0, 1.6670453252114494E9, 0.0, 2022-10-29 14:08:45.211
29.0, 15751.78917127382, 13676.71877050912, 15429.118082896806, 16881.887830534484, 0.0, 0.01600000075995922, 1.008000047877431, 0.0, 0.0, 0.0, 0.0, 0.0, 1.6670453252251308E9, 0.0, 2022-10-29 14:08:45.225
29.0, 15822.329294288065, 13696.646827423014, 15521.484262052458, 17040.13608730957, 0.0, 0.01600000075995922, 1.008000047877431, 0.0, 0.0, 0.0, 0.0, 0.0, 1.6670453252251308E9, 0.0, 2022-10-29 14:08:45.225
30.0, 15666.601730083115, 13564.521771838423, 15342.962007617578, 16835.221358887386, 0.0, 0.01600000075995922, 0.9920000471174717, 0.0, 0.0, 0.0, 0.0, 0.0, 1.6670453252408233E9, 0.0, 2022-10-29 14:08:45.240
30.0, 15679.033157535829, 13562.335800314322, 15196.120445707347, 16725.29634943977, 0.0, 0.01600000075995922, 0.9920000471174717, 0.0, 0.0, 0.0, 0.0, 0.0, 1.6670453252408233E9, 0.0, 2022-10-29 14:08:45.240
31.0, 15725.114334839862, 13649.69799332926, 15384.7142507229, 16853.59548736969, 0.0, 0.01600000075995922, 0.9920000471174717, 0.0, 0.0, 0.0, 0.0, 0.0, 1.667045325241594E9, 0.0, 2022-10-29 14:08:45.241
31.0, 15828.023291970603, 13707.313022096641, 15518.181930391584, 17027.828076555394, 0.0, 0.01600000075995922, 0.9920000471174717, 0.0, 0.0, 0.0, 0.0, 0.0, 1.667045325241594E9, 0.0, 2022-10-29 14:08:45.241
32.0, 15677.80834030034, 13596.471737159882, 15374.264970246702, 16873.63013143232, 0.0, 0.01600000075995922, 0.9920000471174717, 0.0, 0.0, 0.0, 0.0, 0.0, 1.6670453252551253E9, 0.0, 2022-10-29 14:08:45.255
32.0, 15665.550818195567, 13542.828482145444, 15252.690172437113, 16756.071986175142, 0.0, 0.01600000075995922, 0.9920000471174717, 0.0, 0.0, 0.0, 0.0, 0.0, 1.6670453252551253E9, 0.0, 2022-10-29 14:08:45.255
33.0, 15726.778590320144, 13650.464672820177, 15383.255689740181, 16850.266976409126, 0.0, 0.01600000075995922, 0.9920000471174717, 0.0, 0.0, 0.0, 0.0, 0.0, 1.6670453252708597E9, 0.0, 2022-10-29 14:08:45.270
33.0, 15772.654073126614, 13651.214522761293, 15446.024300646503, 16974.05205509253, 0.0, 0.01600000075995922, 0.9920000471174717, 0.0, 0.0, 0.0, 0.0, 0.0, 1.6670453252708597E9, 0.0, 2022-10-29 14:08:45.270
34.0, 15718.236658821348, 13620.39587717643, 15405.788586973213, 16906.129862047266, 0.0, 0.01600000075995922, 0.9920000471174717, 0.0, 0.0, 0.0, 0.0, 0.0, 1.6670453252714767E9, 0.0, 2022-10-29 14:08:45.271
34.0, 15660.15040265955, 13537.843195504509, 15288.802646409255, 16711.174487207085, 0.0, 0.01600000075995922, 0.9920000471174717, 0.0, 0.0, 0.0, 0.0, 0.0, 1.6670453252714767E9, 0.0, 2022-10-29 14:08:45.271
35.0, 15727.410633412655, 13651.582902906928, 15380.56670167204, 16851.542282294016, 0.0, 0.01600000075995922, 0.9920000471174717, 0.0, 0.0, 0.0, 0.0, 0.0, 1.6670453252851388E9, 0.0, 2022-10-29 14:08:45.285
35.0, 15787.329440552741, 13655.137677814811, 15472.940360627603, 16988.035541026853, 0.0, 0.01600000075995922, 0.9920000471174717, 0.0, 0.0, 0.0, 0.0, 0.0, 1.6670453252851388E9, 0.0, 2022-10-29 14:08:45.285
36.0, 15747.628532573115, 13642.412668215577, 15453.135720412247, 16937.171031679492, 0.0, 0.01600000075995922, 0.9920000471174717, 0.0, 0.0, 0.0, 0.0, 0.0, 1.6670453253007636E9, 0.0, 2022-10-29 14:08:45.300
36.0, 15665.00105290208, 13552.35026743263, 15675.910341072828, 16708.967946233228, 0.0, 0.01600000075995922, 0.9920000471174717, 0.0, 0.0, 0.0, 0.0, 0.0, 1.6670453253007636E9, 0.0, 2022-10-29 14:08:45.300
37.0, 15690.262207152788, 13619.819932583254, 15829.91755129816, 16819.921428168658, 0.0, 0.01600000075995922, 0.9920000471174717, 0.0, 0.0, 0.0, 0.0, 0.0, 1.667045325301522E9, 0.0, 2022-10-29 14:08:45.301
37.0, 15757.713172803633, 13637.137539328076, 15933.144399925135, 16967.944798464887, 0.0, 0.01600000075995922, 0.9920000471174717, 0.0, 0.0, 0.0, 0.0, 0.0, 1.667045325301522E9, 0.0, 2022-10-29 14:08:45.301
38.0, 15766.28876340203, 13683.80775087513, 15963.471248665825, 16958.54455992626, 0.0, 0.01600000075995922, 0.9920000471174717, 0.0, 0.0, 0.0, 0.0, 0.0, 1.6670453253151448E9, 0.0, 2022-10-29 14:08:45.315
38.0, 15652.694912097882, 13539.4644421353, 15721.09768228745, 17180.743235993665, 0.0, 0.01600000075995922, 0.9920000471174717, 0.0, 0.0, 0.0, 0.0, 0.0, 1.6670453253151448E9, 0.0, 2022-10-29 14:08:45.315
39.0, 15696.326454930939, 13618.875607844442, 15834.373642095365, 17316.757787532173, 0.0, 0.01600000075995922, 0.9920000471174717, 0.0, 0.0, 0.0, 0.0, 0.0, 1.6670453253308246E9, 0.0, 2022-10-29 14:08:45.330
39.0, 15727.227378314827, 13615.117008388974, 15895.631333419587, 17444.024713074323, 0.0, 0.01600000075995922, 0.9920000471174717, 0.0, 0.0, 0.0, 0.0, 0.0, 1.6670453253308246E9, 0.0, 2022-10-29 14:08:45.330
40.0, 15800.237705249805, 13738.051259832457, 16001.893110860605, 17517.551146203186, 0.0, 0.01600000075995922, 1.008000047877431, 0.0, 0.0, 0.0, 0.0, 0.0, 1.6670453253315408E9, 0.0, 2022-10-29 14:08:45.331
40.0, 15645.706909030676, 13545.448282064404, 16189.501452237833, 17669.694016300607, 0.0, 0.01600000075995922, 1.008000047877431, 0.0, 0.0, 0.0, 0.0, 0.0, 1.6670453253315408E9, 0.0, 2022-10-29 14:08:45.331
41.0, 15679.296820482705, 13609.320163457654, 16298.813118092716, 17799.148783316836, 0.0, 0.01600000075995922, 1.008000047877431, 0.0, 0.0, 0.0, 0.0, 0.0, 1.667045325345072E9, 0.0, 2022-10-29 14:08:45.345
41.0, 15744.896535655484, 13631.6155770435, 16402.238181417342, 17955.68042601226, 0.0, 0.01600000075995922, 1.008000047877431, 0.0, 0.0, 0.0, 0.0, 0.0, 1.667045325345072E9, 0.0, 2022-10-29 14:08:45.345
42.0, 15841.240098414011, 13755.42870497657, 16529.851047705393, 18049.9296447956, 0.0, 0.01600000075995922, 1.008000047877431, 0.0, 0.0, 0.0, 0.0, 0.0, 1.6670453253607829E9, 0.0, 2022-10-29 14:08:45.360
42.0, 15653.121260692831, 13526.38788194023, 16672.116842019837, 18176.465419896413, 0.0, 0.01600000075995922, 1.008000047877431, 0.0, 0.0, 0.0, 0.0, 0.0, 1.6670453253607829E9, 0.0, 2022-10-29 14:08:45.360
43.0, 15671.213026728481, 13599.90122541925, 16772.624783379026, 18318.972437758, 0.0, 0.01600000075995922, 1.008000047877431, 0.0, 0.0, 0.0, 0.0, 0.0, 1.66704532536148E9, 0.0, 2022-10-29 14:08:45.361
43.0, 15725.776297132019, 13610.774984540418, 16847.177819045726, 18503.347635623533, 0.0, 0.01600000075995922, 1.008000047877431, 0.0, 0.0, 0.0, 0.0, 0.0, 1.66704532536148E9, 0.0, 2022-10-29 14:08:45.361
44.0, 15896.910379204433, 13823.792206216604, 17062.72321309196, 18683.913745384198, 0.0, 0.01600000075995922, 1.008000047877431, 0.0, 0.0, 0.0, 0.0, 0.0, 1.6670453253750775E9, 0.0, 2022-10-29 14:08:45.375
44.0, 16117.968385785352, 14004.276038178243, 17172.50423639128, 18774.202410114463, 0.0, 0.01600000075995922, 1.008000047877431, 0.0, 0.0, 0.0, 0.0, 0.0, 1.6670453253750775E9, 0.0, 2022-10-29 14:08:45.375
45.0, 16183.519482258707, 14120.125049155671, 17240.17585613951, 18730.59517663112, 0.0, 0.01600000075995922, 1.008000047877431, 0.0, 0.0, 0.0, 0.0, 0.0, 1.667045325390859E9, 0.0, 2022-10-29 14:08:45.390
45.0, 16238.774634154048, 14152.712667419575, 17334.4718236723, 18917.05723867193, 0.0, 0.01600000075995922, 1.008000047877431, 0.0, 0.0, 0.0, 0.0, 0.0, 1.667045325390859E9, 0.0, 2022-10-29 14:08:45.390
46.0, 16449.36466075899, 14394.186787858605, 17119.04423647467, 18923.284172098152, 0.0, 0.01600000075995922, 1.008000047877431, 0.0, 0.0, 0.0, 0.0, 0.0, 1.6670453253914742E9, 0.0, 2022-10-29 14:08:45.391
46.0, 16587.419327723328, 14469.347557268105, 17123.146906726062, 18997.637123117223, 0.0, 0.01600000075995922, 1.008000047877431, 0.0, 0.0, 0.0, 0.0, 0.0, 1.6670453253914742E9, 0.0, 2022-10-29 14:08:45.391
47.0, 16627.41942769941, 14553.3288807231, 17255.425298208836, 18762.81254479941, 0.0, 0.01600000075995922, 1.008000047877431, 0.0, 0.0, 0.0, 0.0, 0.0, 1.6670453254051065E9, 0.0, 2022-10-29 14:08:45.405
47.0, 16699.866899691056, 14594.70152398292, 17373.297595062293, 18574.287927933037, 0.0, 0.01600000075995922, 1.008000047877431, 0.0, 0.0, 0.0, 0.0, 0.0, 1.6670453254051065E9, 0.0, 2022-10-29 14:08:45.405
48.0, 16488.957111639902, 14389.308088366408, 17207.053432181943, 18746.779593689367, 0.0, 0.01600000075995922, 1.008000047877431, 0.0, 0.0, 0.0, 0.0, 0.0, 1.6670453254209547E9, 0.0, 2022-10-29 14:08:45.420
48.0, 16561.61214807909, 14426.033905931283, 17168.79986548517, 18905.70664230641, 0.0, 0.01600000075995922, 1.008000047877431, 0.0, 0.0, 0.0, 0.0, 0.0, 1.6670453254209547E9, 0.0, 2022-10-29 14:08:45.420
49.0, 16623.42708449671, 14558.499292411841, 17203.208815027494, 18841.85907026287, 0.0, 0.01600000075995922, 1.008000047877431, 0.0, 0.0, 0.0, 0.0, 0.0, 1.6670453254214773E9, 0.0, 2022-10-29 14:08:45.421
49.0, 16670.402097890154, 14579.75875370996, 17280.839788357727, 18661.790367196314, 0.0, 0.01600000075995922, 1.008000047877431, 0.0, 0.0, 0.0, 0.0, 0.0, 1.6670453254214773E9, 0.0, 2022-10-29 14:08:45.421
50.0, 16503.653048515785, 14438.12313253805, 17226.732785748783, 18831.01336039137, 0.0, 0.01600000075995922, 1.008000047877431, 0.0, 0.0, 0.0, 0.0, 0.0, 1.6670453254352064E9, 0.0, 2022-10-29 14:08:45.435
50.0, 16541.94214426214, 14406.60886556143, 17117.0920086978, 18770.425111159217, 0.0, 0.01600000075995922, 1.008000047877431, 0.0, 0.0, 0.0, 0.0, 0.0, 1.6670453254352064E9, 0.0, 2022-10-29 14:08:45.435
51.0, 16598.259427744895, 14530.65573724173, 17178.798488016706, 18716.125503702555, 0.0, 0.01600000075995922, 1.008000047877431, 0.0, 0.0, 0.0, 0.0, 0.0, 1.667045325450739E9, 0.0, 2022-10-29 14:08:45.450
51.0, 16674.40566079272, 14567.20390955871, 17317.980734817684, 18619.090059452225, 0.0, 0.01600000075995922, 1.008000047877431, 0.0, 0.0, 0.0, 0.0, 0.0, 1.667045325450739E9, 0.0, 2022-10-29 14:08:45.450
52.0, 16529.82673835568, 14427.019369569607, 17243.158426354174, 18770.522348558065, 0.0, 0.01600000075995922, 1.008000047877431, 0.0, 0.0, 0.0, 0.0, 0.0, 1.6670453254514825E9, 0.0, 2022-10-29 14:08:45.451
52.0, 16518.777203936595, 14379.135560486931, 17078.971208449453, 18565.779655533843, 0.0, 0.01600000075995922, 1.008000047877431, 0.0, 0.0, 0.0, 0.0, 0.0, 1.6670453254514825E9, 0.0, 2022-10-29 14:08:45.451
53.0, 16564.095441649668, 14492.490058193915, 17150.981112146284, 18556.183072247542, 0.0, 0.01600000075995922, 1.008000047877431, 0.0, 0.0, 0.0, 0.0, 0.0, 1.6670453254650805E9, 0.0, 2022-10-29 14:08:45.465
53.0, 16634.10075897025, 14534.520923845936, 17261.37360908836, 18518.219347797334, 0.0, 0.01600000075995922, 1.008000047877431, 0.0, 0.0, 0.0, 0.0, 0.0, 1.6670453254650805E9, 0.0, 2022-10-29 14:08:45.465
54.0, 16562.371347770095, 14463.748927034438, 17297.100873365067, 18297.282887964975, 0.0, 0.01600000075995922, 1.008000047877431, 0.0, 0.0, 0.0, 0.0, 0.0, 1.6670453254807353E9, 0.0, 2022-10-29 14:08:45.480
54.0, 16504.206553709228, 14360.37622230919, 17145.77891130792, 18508.187066166196, 0.0, 0.01600000075995922, 1.008000047877431, 0.0, 0.0, 0.0, 0.0, 0.0, 1.6670453254807353E9, 0.0, 2022-10-29 14:08:45.480
55.0, 16558.343475517817, 14489.748711526394, 17140.999319164548, 18551.036969908513, 0.0, 0.01600000075995922, 1.008000047877431, 0.0, 0.0, 0.0, 0.0, 0.0, 1.667045325481418E9, 0.0, 2022-10-29 14:08:45.481
55.0, 16618.98408334935, 14513.248372897971, 17252.726960390806, 18457.93590041157, 0.0, 0.01600000075995922, 1.008000047877431, 0.0, 0.0, 0.0, 0.0, 0.0, 1.667045325481418E9, 0.0, 2022-10-29 14:08:45.481
56.0, 16602.893163789995, 14502.29981577769, 17332.513986045495, 18235.092091601808, 0.0, 0.01600000075995922, 1.008000047877431, 0.0, 0.0, 0.0, 0.0, 0.0, 1.6670453254950206E9, 0.0, 2022-10-29 14:08:45.495
56.0, 16503.81386421388, 14350.906795621384, 17555.786013400182, 17990.758817646652, 0.0, 0.01600000075995922, 1.008000047877431, 0.0, 0.0, 0.0, 0.0, 0.0, 1.6670453254950206E9, 0.0, 2022-10-29 14:08:45.495
57.0, 16533.7498934092, 14459.635037083179, 17605.19570166478, 17980.777024664916, 0.0, 0.01600000075995922, 1.008000047877431, 0.0, 0.0, 0.0, 0.0, 0.0, 1.6670453255107253E9, 0.0, 2022-10-29 14:08:45.510
57.0, 16612.10266743088, 14503.195521817077, 17745.204466355965, 17883.360110619105, 0.0, 0.01600000075995922, 1.008000047877431, 0.0, 0.0, 0.0, 0.0, 0.0, 1.6670453255107253E9, 0.0, 2022-10-29 14:08:45.510
58.0, 16614.608400401194, 14518.09154334059, 17864.712969440036, 17796.09889490297, 0.0, 0.01600000075995922, 1.008000047877431, 0.0, 0.0, 0.0, 0.0, 0.0, 1.6670453255114288E9, 0.0, 2022-10-29 14:08:45.511
58.0, 16511.60594577156, 14361.82543354202, 18108.262734354474, 17565.326498187147, 0.0, 0.01600000075995922, 1.008000047877431, 0.0, 0.0, 0.0, 0.0, 0.0, 1.6670453255114288E9, 0.0, 2022-10-29 14:08:45.511
59.0, 16531.541482485365, 14466.495883551892, 18096.220256497152, 17460.85239292495, 0.0, 0.01600000075995922, 1.008000047877431, 0.0, 0.0, 0.0, 0.0, 0.0, 1.6670453255250754E9, 0.0, 2022-10-29 14:08:45.525
59.0, 16565.146353537217, 14467.982493784279, 18172.819017439615, 17267.712739513256, 0.0, 0.01600000075995922, 1.008000047877431, 0.0, 0.0, 0.0, 0.0, 0.0, 1.6670453255250754E9, 0.0, 2022-10-29 14:08:45.525
60.0, 16656.474710455164, 14541.2508738162, 18400.713561139535, 17278.188199289143, 0.0, 0.01600000075995922, 1.008000047877431, 0.0, 0.0, 0.0, 0.0, 0.0, 1.6670453255407515E9, 0.0, 2022-10-29 14:08:45.540
60.0, 16508.593456357252, 14369.295883703511, 18611.09415334696, 17079.167553197127, 0.0, 0.01600000075995922, 1.008000047877431, 0.0, 0.0, 0.0, 0.0, 0.0, 1.6670453255407515E9, 0.0, 2022-10-29 14:08:45.540
61.0, 16519.818766074255, 14448.250781618059, 18564.700694396626, 16999.754517538007, 0.0, 0.01600000075995922, 1.008000047877431, 0.0, 0.0, 0.0, 0.0, 0.0, 1.6670453255414948E9, 0.0, 2022-10-29 14:08:45.541
61.0, 16541.096926872153, 14438.886072129011, 18616.98636572715, 16784.732709485572, 0.0, 0.01600000075995922, 1.008000047877431, 0.0, 0.0, 0.0, 0.0, 0.0, 1.6670453255414948E9, 0.0, 2022-10-29 14:08:45.541
62.0, 16688.392886627, 14580.961131545715, 18415.422587665264, 16810.934448575135, 0.0, 0.01600000075995922, 1.008000047877431, 0.0, 0.0, 0.0, 0.0, 0.0, 1.6670453255550857E9, 0.0, 2022-10-29 14:08:45.555
62.0, 16519.94592267275, 14360.727772905026, 18605.607720111962, 16620.19020108506, 0.0, 0.01600000075995922, 1.008000047877431, 0.0, 0.0, 0.0, 0.0, 0.0, 1.6670453255550857E9, 0.0, 2022-10-29 14:08:45.555
63.0, 16505.46129014436, 14431.93733801134, 18541.31136007374, 16402.991771258414, 0.0, 0.01600000075995922, 1.008000047877431, 0.0, 0.0, 0.0, 0.0, 0.0, 1.667045325570833E9, 0.0, 2022-10-29 14:08:45.570
63.0, 16514.34916238906, 14405.720639321953, 18584.658670510165, 16177.621660028584, 0.0, 0.01600000075995922, 1.008000047877431, 0.0, 0.0, 0.0, 0.0, 0.0, 1.667045325570833E9, 0.0, 2022-10-29 14:08:45.570
64.0, 16713.58111282857, 14583.15271291975, 18437.764750000555, 16283.109278178774, 0.0, 0.01600000075995922, 1.008000047877431, 0.0, 0.0, 0.0, 0.0, 0.0, 1.6670453255714743E9, 0.0, 2022-10-29 14:08:45.571
64.0, 16527.62393728178, 14387.774729384575, 18564.850290394854, 16479.364268253557, 0.0, 0.01600000075995922, 1.008000047877431, 0.0, 0.0, 0.0, 0.0, 0.0, 1.6670453255714743E9, 0.0, 2022-10-29 14:08:45.571
65.0, 16462.99846604746, 14391.06771129556, 18530.716223499272, 16688.377927027177, 0.0, 0.01600000075995922, 1.008000047877431, 0.0, 0.0, 0.0, 0.0, 0.0, 1.6670453255851016E9, 0.0, 2022-10-29 14:08:45.585
65.0, 16470.9962421027, 14352.883332747966, 18587.134484280832, 16505.025591799524, 0.0, 0.01600000075995922, 1.008000047877431, 0.0, 0.0, 0.0, 0.0, 0.0, 1.6670453255851016E9, 0.0, 2022-10-29 14:08:45.585
66.0, 16228.734872722998, 14591.133659425192, 18491.727766461205, 16280.278173912317, 0.0, 0.01600000075995922, 1.008000047877431, 0.0, 0.0, 0.0, 0.0, 0.0, 1.667045325601214E9, 0.0, 2022-10-29 14:08:45.601
66.0, 16087.484461246524, 14431.782132163178, 18578.35506913485, 16368.39021686837, 0.0, 0.01600000075995922, 1.008000047877431, 0.0, 0.0, 0.0, 0.0, 0.0, 1.667045325601214E9, 0.0, 2022-10-29 14:08:45.601
67.0, 15984.027608772274, 14407.472782451194, 18529.34742011549, 16525.703498654533, 0.0, 0.01600000075995922, 1.008000047877431, 0.0, 0.0, 0.0, 0.0, 0.0, 1.6670453256157403E9, 0.0, 2022-10-29 14:08:45.615
67.0, 15964.711025501136, 14341.953475127462, 18536.481279280968, 16668.47978931293, 0.0, 0.01600000075995922, 1.008000047877431, 0.0, 0.0, 0.0, 0.0, 0.0, 1.6670453256157403E9, 0.0, 2022-10-29 14:08:45.615
68.0, 15813.198328546248, 14168.64838113077, 18567.23073671665, 16510.343729536515, 0.0, 0.01600000075995922, 1.008000047877431, 0.0, 0.0, 0.0, 0.0, 0.0, 1.6670453256165211E9, 0.0, 2022-10-29 14:08:45.616
68.0, 15623.007586249616, 13988.488050515298, 18664.221302167512, 16563.697142304387, 0.0, 0.01600000075995922, 1.008000047877431, 0.0, 0.0, 0.0, 0.0, 0.0, 1.6670453256165211E9, 0.0, 2022-10-29 14:08:45.616
69.0, 15508.682584504131, 13937.172883223277, 18521.948028053157, 16612.938535070978, 0.0, 0.01600000075995922, 1.008000047877431, 0.0, 0.0, 0.0, 0.0, 0.0, 1.6670453256306932E9, 0.0, 2022-10-29 14:08:45.630
69.0, 15441.001615006011, 13822.58982838085, 18484.519109296612, 16692.256203281227, 0.0, 0.01600000075995922, 1.008000047877431, 0.0, 0.0, 0.0, 0.0, 0.0, 1.6670453256306932E9, 0.0, 2022-10-29 14:08:45.630
70.0, 15342.670295421034, 13716.894645783119, 18575.68291061651, 16611.79038578458, 0.0, 0.01600000075995922, 0.9920000471174717, 0.0, 0.0, 0.0, 0.0, 0.0, 1.6670453256314218E9, 0.0, 2022-10-29 14:08:45.631
70.0, 15171.826055595186, 13527.104072781745, 18582.34741233755, 16615.29841194302, 0.0, 0.01600000075995922, 0.9920000471174717, 0.0, 0.0, 0.0, 0.0, 0.0, 1.6670453256314218E9, 0.0, 2022-10-29 14:08:45.631
71.0, 15006.769310950767, 13434.94919797359, 18498.581133130006, 16631.58380630007, 0.0, 0.01600000075995922, 0.9920000471174717, 0.0, 0.0, 0.0, 0.0, 0.0, 1.66704532564501E9, 0.0, 2022-10-29 14:08:45.645
71.0, 14925.44518641429, 13313.724080809858, 18468.097208591178, 16655.55095516611, 0.0, 0.01600000075995922, 0.9920000471174717, 0.0, 0.0, 0.0, 0.0, 0.0, 1.66704532564501E9, 0.0, 2022-10-29 14:08:45.645
72.0, 14840.472789471038, 13224.581695416011, 18589.07923225779, 16561.094171935227, 0.0, 0.01600000075995922, 0.9920000471174717, 0.0, 0.0, 0.0, 0.0, 0.0, 1.6670453256611524E9, 0.0, 2022-10-29 14:08:45.661
72.0, 14681.442893605214, 13036.993923488539, 18644.078201006167, 16667.015618480276, 0.0, 0.01600000075995922, 0.9920000471174717, 0.0, 0.0, 0.0, 0.0, 0.0, 1.6670453256611524E9, 0.0, 2022-10-29 14:08:45.661
73.0, 14511.053051623981, 12945.84882166842, 18508.996754506603, 16630.600212611724, 0.0, 0.01600000075995922, 0.9920000471174717, 0.0, 0.0, 0.0, 0.0, 0.0, 1.6670453256756628E9, 0.0, 2022-10-29 14:08:45.675
73.0, 14413.718415377196, 12809.207836887334, 18418.640771577135, 16640.57265584357, 0.0, 0.01600000075995922, 0.9920000471174717, 0.0, 0.0, 0.0, 0.0, 0.0, 1.6670453256756628E9, 0.0, 2022-10-29 14:08:45.675
74.0, 14418.43442922132, 12797.148529480211, 18658.21128293872, 16664.631432258524, 0.0, 0.01600000075995922, 0.9920000471174717, 0.0, 0.0, 0.0, 0.0, 0.0, 1.6670453256763818E9, 0.0, 2022-10-29 14:08:45.676
74.0, 14183.271389957517, 13022.926289805211, 18637.44548843475, 16664.128415714484, 0.0, 0.01600000075995922, 0.9920000471174717, 0.0, 0.0, 0.0, 0.0, 0.0, 1.6670453256763818E9, 0.0, 2022-10-29 14:08:45.676
75.0, 14013.102202073671, 12939.227328796871, 18487.785911907908, 16626.718196457718, 0.0, 0.01600000075995922, 0.9920000471174717, 0.0, 0.0, 0.0, 0.0, 0.0, 1.6670453256907356E9, 0.0, 2022-10-29 14:08:45.690
75.0, 13904.330951762386, 12781.885997761041, 18430.74121788377, 16602.027376950253, 0.0, 0.01600000075995922, 0.9920000471174717, 0.0, 0.0, 0.0, 0.0, 0.0, 1.6670453256907356E9, 0.0, 2022-10-29 14:08:45.690
76.0, 13931.542463839985, 12791.811692243442, 18663.80804322241, 16663.07376392698, 0.0, 0.01600000075995922, 0.9920000471174717, 0.0, 0.0, 0.0, 0.0, 0.0, 1.6670453256914508E9, 0.0, 2022-10-29 14:08:45.691
76.0, 13724.31273734523, 12573.43706388073, 18579.35175247304, 16696.572047830094, 0.0, 0.01600000075995922, 0.9920000471174717, 0.0, 0.0, 0.0, 0.0, 0.0, 1.6670453256914508E9, 0.0, 2022-10-29 14:08:45.691
77.0, 13508.69628519984, 12438.090084484313, 18467.31556950044, 16612.465437726583, 0.0, 0.01600000075995922, 0.9920000471174717, 0.0, 0.0, 0.0, 0.0, 0.0, 1.667045325705044E9, 0.0, 2022-10-29 14:08:45.705
77.0, 13382.28766669752, 12268.220088596921, 18382.109428809956, 16573.31616499042, 0.0, 0.01600000075995922, 0.9920000471174717, 0.0, 0.0, 0.0, 0.0, 0.0, 1.667045325705044E9, 0.0, 2022-10-29 14:08:45.705
78.0, 13473.836677712854, 12337.067906881217, 18207.543988528196, 16695.468777343165, 0.0, 0.01600000075995922, 0.9920000471174717, 0.0, 0.0, 0.0, 0.0, 0.0, 1.6670453257207253E9, 0.0, 2022-10-29 14:08:45.720
78.0, 13712.090744290035, 12557.01142327534, 18160.636293333955, 16698.42329830816, 0.0, 0.01600000075995922, 0.9920000471174717, 0.0, 0.0, 0.0, 0.0, 0.0, 1.6670453257207253E9, 0.0, 2022-10-29 14:08:45.720
79.0, 13515.259809622075, 12441.231600447092, 17981.00889846217, 16608.59090137249, 0.0, 0.01600000075995922, 0.9920000471174717, 0.0, 0.0, 0.0, 0.0, 0.0, 1.6670453257214904E9, 0.0, 2022-10-29 14:08:45.721
79.0, 13372.103919118177, 12250.182551110629, 17875.925189507194, 16564.733094592113, 0.0, 0.01600000075995922, 0.9920000471174717, 0.0, 0.0, 0.0, 0.0, 0.0, 1.6670453257214904E9, 0.0, 2022-10-29 14:08:45.721
80.0, 13525.301441003103, 12373.591769848485, 17757.682642558124, 16738.61600313196, 0.0, 0.01600000075995922, 0.9920000471174717, 0.0, 0.0, 0.0, 0.0, 0.0, 1.6670453257350097E9, 0.0, 2022-10-29 14:08:45.735
80.0, 13709.869243716355, 12564.943751081359, 17559.53713305574, 16694.34493740648, 0.0, 0.01600000075995922, 0.9920000471174717, 0.0, 0.0, 0.0, 0.0, 0.0, 1.6670453257350097E9, 0.0, 2022-10-29 14:08:45.735
81.0, 13481.89242221741, 12409.225536626298, 17458.982442947105, 16592.470062613487, 0.0, 0.01600000075995922, 0.9920000471174717, 0.0, 0.0, 0.0, 0.0, 0.0, 1.6670453257507308E9, 0.0, 2022-10-29 14:08:45.750
81.0, 13364.85599300405, 12235.862474180292, 17392.11303173937, 16563.1305474611, 0.0, 0.01600000075995922, 0.9920000471174717, 0.0, 0.0, 0.0, 0.0, 0.0, 1.6670453257507308E9, 0.0, 2022-10-29 14:08:45.750
82.0, 13548.313045430463, 12400.80702182604, 17308.296263882425, 16778.081297414377, 0.0, 0.01600000075995922, 0.9920000471174717, 0.0, 0.0, 0.0, 0.0, 0.0, 1.6670453257515008E9, 0.0, 2022-10-29 14:08:45.751
82.0, 13708.234907435719, 12557.123620274011, 17120.91792635247, 16717.436949682888, 0.0, 0.01600000075995922, 0.9920000471174717, 0.0, 0.0, 0.0, 0.0, 0.0, 1.6670453257515008E9, 0.0, 2022-10-29 14:08:45.751
83.0, 13487.330236752983, 12409.966036817525, 16959.40286696609, 16592.827223059256, 0.0, 0.01600000075995922, 0.9920000471174717, 0.0, 0.0, 0.0, 0.0, 0.0, 1.6670453257650132E9, 0.0, 2022-10-29 14:08:45.765
83.0, 13331.9261738942, 12200.37456350075, 16837.104398515075, 16515.73666527262, 0.0, 0.01600000075995922, 0.9920000471174717, 0.0, 0.0, 0.0, 0.0, 0.0, 1.6670453257650132E9, 0.0, 2022-10-29 14:08:45.765
84.0, 13117.37746318616, 11971.920904757455, 16884.107461158186, 16345.333733641542, 0.0, 0.01600000075995922, 0.9920000471174717, 0.0, 0.0, 0.0, 0.0, 0.0, 1.6670453257807512E9, 0.0, 2022-10-29 14:08:45.780
84.0, 13211.091876275837, 12047.369646463543, 16681.388054009993, 16223.736496432219, 0.0, 0.01600000075995922, 0.9920000471174717, 0.0, 0.0, 0.0, 0.0, 0.0, 1.6670453257807512E9, 0.0, 2022-10-29 14:08:45.780
85.0, 12992.352607667446, 11909.79742659349, 16467.48447604431, 16093.217727878597, 0.0, 0.01600000075995922, 0.9920000471174717, 0.0, 0.0, 0.0, 0.0, 0.0, 1.6670453257814565E9, 0.0, 2022-10-29 14:08:45.781
85.0, 12832.946851856075, 11717.731124469079, 16363.073949081358, 16030.342529823538, 0.0, 0.01600000075995922, 0.9920000471174717, 0.0, 0.0, 0.0, 0.0, 0.0, 1.6670453257814565E9, 0.0, 2022-10-29 14:08:45.781
86.0, 12633.989784063306, 11489.561698122416, 16415.694341457915, 15864.577074137516, 0.0, 0.01600000075995922, 0.9920000471174717, 0.0, 0.0, 0.0, 0.0, 0.0, 1.6670453257950056E9, 0.0, 2022-10-29 14:08:45.795
86.0, 12726.062381072436, 11577.486746080685, 16590.66182098491, 15709.48903282499, 0.0, 0.01600000075995922, 0.9920000471174717, 0.0, 0.0, 0.0, 0.0, 0.0, 1.6670453257950056E9, 0.0, 2022-10-29 14:08:45.795
87.0, 12962.814877817407, 11398.947662096005, 16430.055557287764, 15572.051449353341, 0.0, 0.01600000075995922, 0.9920000471174717, 0.0, 0.0, 0.0, 0.0, 0.0, 1.6670453258107233E9, 0.0, 2022-10-29 14:08:45.810
87.0, 12820.324689505622, 11211.687131414656, 16344.935434296262, 15496.307255550753, 0.0, 0.01600000075995922, 0.9920000471174717, 0.0, 0.0, 0.0, 0.0, 0.0, 1.6670453258107233E9, 0.0, 2022-10-29 14:08:45.810
88.0, 12677.971007542219, 11024.290094384924, 16436.544283710886, 15411.70884860307, 0.0, 0.01600000075995922, 0.9920000471174717, 0.0, 0.0, 0.0, 0.0, 0.0, 1.6670453258114216E9, 0.0, 2022-10-29 14:08:45.811
88.0, 12708.836401876528, 11053.936281333677, 16619.32441424532, 15213.668056299444, 0.0, 0.01600000075995922, 0.9920000471174717, 0.0, 0.0, 0.0, 0.0, 0.0, 1.6670453258114216E9, 0.0, 2022-10-29 14:08:45.811
89.0, 12467.64651383413, 10904.2206063075, 16415.346530762035, 15067.47162713157, 0.0, 0.01600000075995922, 0.9920000471174717, 0.0, 0.0, 0.0, 0.0, 0.0, 1.6670453258250372E9, 0.0, 2022-10-29 14:08:45.825
89.0, 12293.950600292068, 10707.66642423626, 16301.743329707999, 14999.659761135, 0.0, 0.01600000075995922, 0.9920000471174717, 0.0, 0.0, 0.0, 0.0, 0.0, 1.6670453258250372E9, 0.0, 2022-10-29 14:08:45.825
90.0, 12208.727630051784, 10579.726316702086, 16494.587531023193, 14967.102062070742, 0.0, 0.01600000075995922, 0.9920000471174717, 0.0, 0.0, 0.0, 0.0, 0.0, 1.6670453258407025E9, 0.0, 2022-10-29 14:08:45.840
90.0, 12234.39830334764, 10600.464061956387, 16595.34043582948, 15186.12182317581, 0.0, 0.01600000075995922, 0.9920000471174717, 0.0, 0.0, 0.0, 0.0, 0.0, 1.6670453258407025E9, 0.0, 2022-10-29 14:08:45.840
91.0, 12459.011084836442, 10407.885393538047, 16404.007154096384, 15062.319914942607, 0.0, 0.01600000075995922, 0.9920000471174717, 0.0, 0.0, 0.0, 0.0, 0.0, 1.667045325841452E9, 0.0, 2022-10-29 14:08:45.841
91.0, 12292.978226303589, 10192.433496990707, 16310.726569401566, 14997.971196305007, 0.0, 0.01600000075995922, 0.9920000471174717, 0.0, 0.0, 0.0, 0.0, 0.0, 1.667045325841452E9, 0.0, 2022-10-29 14:08:45.841
92.0, 12244.679288325831, 10109.22633282654, 16532.244583677035, 14985.99416669691, 0.0, 0.01600000075995922, 0.9920000471174717, 0.0, 0.0, 0.0, 0.0, 0.0, 1.6670453258550217E9, 0.0, 2022-10-29 14:08:45.855
92.0, 12210.715386878233, 10082.932966188062, 16607.92145928042, 15191.737282959279, 0.0, 0.01600000075995922, 0.9920000471174717, 0.0, 0.0, 0.0, 0.0, 0.0, 1.6670453258550217E9, 0.0, 2022-10-29 14:08:45.855
93.0, 12445.57175434567, 9905.874882585835, 16387.588993290905, 15055.032719878945, 0.0, 0.01600000075995922, 0.9920000471174717, 0.0, 0.0, 0.0, 0.0, 0.0, 1.6670453258707635E9, 0.0, 2022-10-29 14:08:45.870
93.0, 12265.024344084784, 9688.20522536477, 16243.958135492634, 14960.678783896845, 0.0, 0.01600000075995922, 0.9920000471174717, 0.0, 0.0, 0.0, 0.0, 0.0, 1.6670453258707635E9, 0.0, 2022-10-29 14:08:45.870
94.0, 12286.424051631242, 9672.155444704928, 16090.624107259326, 15026.381346318405, 0.0, 0.01600000075995922, 0.9920000471174717, 0.0, 0.0, 0.0, 0.0, 0.0, 1.6670453258714995E9, 0.0, 2022-10-29 14:08:45.871
94.0, 12187.172716657165, 9567.42889619572, 16156.128454983234, 15176.62060733838, 0.0, 0.01600000075995922, 0.9920000471174717, 0.0, 0.0, 0.0, 0.0, 0.0, 1.6670453258714995E9, 0.0, 2022-10-29 14:08:45.871
95.0, 11947.175856700633, 9406.201809105929, 16378.358920200262, 15045.099545596633, 0.0, 0.01600000075995922, 0.9920000471174717, 0.0, 0.0, 0.0, 0.0, 0.0, 1.6670453258849583E9, 0.0, 2022-10-29 14:08:45.884
95.0, 11783.85816553561, 9200.181940246839, 16281.74234474497, 14984.670242112596, 0.0, 0.01600000075995922, 0.9920000471174717, 0.0, 0.0, 0.0, 0.0, 0.0, 1.6670453258849583E9, 0.0, 2022-10-29 14:08:45.884
96.0, 11826.773517527152, 9193.702563573606, 16113.68433038611, 15042.893004622776, 0.0, 0.01600000075995922, 0.9920000471174717, 0.0, 0.0, 0.0, 0.0, 0.0, 1.667045325900709E9, 0.0, 2022-10-29 14:08:45.900
96.0, 11698.235026000068, 9082.644364439417, 16058.6797517878, 15114.194197278004, 0.0, 0.01600000075995922, 0.9920000471174717, 0.0, 0.0, 0.0, 0.0, 0.0, 1.667045325900709E9, 0.0, 2022-10-29 14:08:45.900
97.0, 11925.491916757543, 8898.43559212191, 15860.431395036634, 15009.634074316826, 0.0, 0.01600000075995922, 0.9920000471174717, 0.0, 0.0, 0.0, 0.0, 0.0, 1.6670453259014213E9, 0.0, 2022-10-29 14:08:45.901
97.0, 11765.719650750514, 8686.461802533362, 15769.607924612705, 14963.588426062372, 0.0, 0.01600000075995922, 0.9920000471174717, 0.0, 0.0, 0.0, 0.0, 0.0, 1.6670453259014213E9, 0.0, 2022-10-29 14:08:45.901
98.0, 11863.259981494863, 8739.631960203405, 15655.497967114672, 15085.131434722338, 0.0, 0.01600000075995922, 0.9920000471174717, 0.0, 0.0, 0.0, 0.0, 0.0, 1.6670453259149823E9, 0.0, 2022-10-29 14:08:45.914
98.0, 11702.951039844193, 8573.301779624075, 15621.646262665745, 15131.633350771386, 0.0, 0.01600000075995922, 0.9920000471174717, 0.0, 0.0, 0.0, 0.0, 0.0, 1.6670453259149823E9, 0.0, 2022-10-29 14:08:45.914
99.0, 11919.67263242649, 8406.165650604293, 15851.120914096944, 15014.017237064894, 0.0, 0.01600000075995922, 0.9920000471174717, 0.0, 0.0, 0.0, 0.0, 0.0, 1.6670453259307153E9, 0.0, 2022-10-29 14:08:45.930
99.0, 11727.602590402123, 8644.081256235484, 15706.715897007845, 14925.310550015885, 0.0, 0.01600000075995922, 0.9920000471174717, 0.0, 0.0, 0.0, 0.0, 0.0, 1.6670453259307153E9, 0.0, 2022-10-29 14:08:45.930
100.0, 11903.66212071618, 8786.283472250681, 15705.50603937218, 15131.506194172893, 0.0, 0.01600000075995922, 0.9920000471174717, 0.0, 0.0, 0.0, 0.0, 0.0, 1.667045325931426E9, 0.0, 2022-10-29 14:08:45.931
100.0, 11693.945360750891, 8556.823780419305, 15586.556651331484, 15125.228772097267, 0.0, 0.01600000075995922, 0.9920000471174717, 0.0, 0.0, 0.0, 0.0, 0.0, 1.667045325931426E9, 0.0, 2022-10-29 14:08:45.931
0.0, 1605.0865230830386, 1516.6808979804628, 1616.4576888983138, 1762.0164651237428, 0.0, 0.01600000075995922, 0.9920000471174717, 0.0, 0.0, 0.0, 0.0, 0.0, 1.6670453259457574E9, 0.0, 2022-10-29 14:08:45.945
1.0, 1419.867977777496, 1296.3521718909033, 1505.2779430155642, 1702.7689700257033, 0.0, 0.03200000151991844, 0.9920000471174717, 0.0, 0.0, 0.0, 0.0, 0.0, 1.6670453259464917E9, 0.0, 2022-10-29 14:08:45.946
1.0, 1643.8169270241633, 1472.572517903056, 1540.907969893422, 1465.807038883213, 0.0, 0.03200000151991844, 0.9920000471174717, 0.0, 0.0, 0.0, 0.0, 0.0, 1.6670453259464917E9, 0.0, 2022-10-29 14:08:45.946
2.0, 1406.5558038852178, 1703.3804436684586, 1334.3065465912223, 1382.068808925338, 0.0, 0.03200000151991844, 0.9920000471174717, 0.0, 0.0, 0.0, 0.0, 0.0, 1.6670453259600055E9, 0.0, 2022-10-29 14:08:45.960
2.0, 1595.0635912017897, 1514.665091904346, 1101.408016750589, 1246.1683243354782, 0.0, 0.03200000151991844, 0.9920000471174717, 0.0, 0.0, 0.0, 0.0, 0.0, 1.6670453259600055E9, 0.0, 2022-10-29 14:08:45.960
3.0, 1398.0157423363999, 1271.4182588863187, 970.1300485059619, 1170.6298250304535, 0.0, 0.03200000151991844, 0.9920000471174717, 0.0, 0.0, 0.0, 0.0, 0.0, 1.667045325975708E9, 0.0, 2022-10-29 14:08:45.975
3.0, 1186.436512193177, 1495.9132335265167, 1100.0130340671167, 981.5311335208826, 0.0, 0.03200000151991844, 0.9920000471174717, 0.0, 0.0, 0.0, 0.0, 0.0, 1.667045325975708E9, 0.0, 2022-10-29 14:08:45.975
4.0, 1370.3610521140508, 1669.5642682691105, 917.9939731736667, 855.9770821584389, 0.0, 0.03200000151991844, 0.9920000471174717, 0.0, 0.0, 0.0, 0.0, 0.0, 1.667045325976424E9, 0.0, 2022-10-29 14:08:45.976
4.0, 1596.6119097834453, 1504.0549957300536, 1105.2825531046838, 735.3615686874837, 0.0, 0.03200000151991844, 0.9920000471174717, 0.0, 0.0, 0.0, 0.0, 0.0, 1.667045325976424E9, 0.0, 2022-10-29 14:08:45.976
5.0, 1390.042275630869, 1260.0975817204453, 960.6344425184652, 674.259083211422, 0.0, 0.03200000151991844, 0.9920000471174717, 0.0, 0.0, 0.0, 0.0, 0.0, 1.667045325990006E9, 0.0, 2022-10-29 14:08:45.990
5.0, 1210.3905714093708, 1022.653203483671, 1112.3771433206275, 519.4066555961035, 0.0, 0.03200000151991844, 0.9920000471174717, 0.0, 0.0, 0.0, 0.0, 0.0, 1.667045325990006E9, 0.0, 2022-10-29 14:08:45.990
6.0, 1378.8207058138214, 1157.151225590147, 1295.897774046287, 341.22099215723574, 0.0, 0.03200000151991844, 0.9920000471174717, 0.0, 0.0, 0.0, 0.0, 0.0, 1.6670453260057783E9, 0.0, 2022-10-29 14:08:46.005
6.0, 1568.2111095199361, 997.8539268774912, 1076.7246770430356, 224.39399734139442, 0.0, 0.03200000151991844, 0.9920000471174717, 0.0, 0.0, 0.0, 0.0, 0.0, 1.6670453260057783E9, 0.0, 2022-10-29 14:08:46.005
7.0, 1377.0610828846693, 756.2002912405878, 955.7875321758911, 159.82836450636387, 0.0, 0.03200000151991844, 0.9920000471174717, 0.0, 0.0, 0.0, 0.0, 0.0, 1.667045326006493E9, 0.0, 2022-10-29 14:08:46.006
7.0, 1237.4450076888315, 589.5222999653779, 1138.433026311919, 66.76282405899838, 0.0, 0.03200000151991844, 0.9920000471174717, 0.0, 0.0, 0.0, 0.0, 0.0, 1.667045326006493E9, 0.0, 2022-10-29 14:08:46.006
8.0, 1367.8104403442703, 714.5209761844017, 1352.4525411762297, -129.14622526988387, 0.0, 0.03200000151991844, 0.9920000471174717, 0.0, 0.0, 0.0, 0.0, 0.0, 1.6670453260200276E9, 0.0, 2022-10-29 14:08:46.020
8.0, 1559.6355189215392, 501.2157822116278, 1550.8860229752026, -264.41092686727643, 0.0, 0.03200000151991844, 0.9920000471174717, 0.0, 0.0, 0.0, 0.0, 0.0, 1.6670453260200276E9, 0.0, 2022-10-29 14:08:46.020
9.0, 1348.5817447220907, 739.4193601394072, 1401.088070149999, -353.15127301588655, 0.0, 0.03200000151991844, 0.9920000471174717, 0.0, 0.0, 0.0, 0.0, 0.0, 1.6670453260356996E9, 0.0, 2022-10-29 14:08:46.035
9.0, 1282.7314562522806, 627.6393603137694, 1202.0001058587804, -366.94589400244877, 0.0, 0.03200000151991844, 0.9920000471174717, 0.0, 0.0, 0.0, 0.0, 0.0, 1.6670453260356996E9, 0.0, 2022-10-29 14:08:46.035
10.0, 1368.4686627364717, 701.7005991362967, 1272.6019372222945, -149.87462077429518, 0.0, 0.03200000151991844, 0.9920000471174717, 0.0, 0.0, 0.0, 0.0, 0.0, 1.667045326036469E9, 0.0, 2022-10-29 14:08:46.036
10.0, 1543.2397975157946, 481.4990296452306, 1031.8271780749783, -288.4079949329607, 0.0, 0.03200000151991844, 0.9920000471174717, 0.0, 0.0, 0.0, 0.0, 0.0, 1.667045326036469E9, 0.0, 2022-10-29 14:08:46.036
11.0, 1365.9161810167134, 259.12831817986444, 939.4479092694819, -326.8392068776302, 0.0, 0.03200000151991844, 0.9920000471174717, 0.0, 0.0, 0.0, 0.0, 0.0, 1.667045326050038E9, 0.0, 2022-10-29 14:08:46.050
11.0, 1327.8982280171476, 175.65562111884356, 757.9150353702717, -333.969326143153, 0.0, 0.03200000151991844, 0.9920000471174717, 0.0, 0.0, 0.0, 0.0, 0.0, 1.667045326050038E9, 0.0, 2022-10-29 14:08:46.050
12.0, 1355.7230836874805, 167.5755672645755, 824.8405450773425, -150.86382431257516, 0.0, 0.03200000151991844, 0.9920000471174717, 0.0, 0.0, 0.0, 0.0, 0.0, 1.6670453260657718E9, 0.0, 2022-10-29 14:08:46.065
12.0, 1534.5295705189928, -17.90477103786543, 1025.7984593464062, -298.08124616835266, 0.0, 0.03200000151991844, 0.9920000471174717, 0.0, 0.0, 0.0, 0.0, 0.0, 1.6670453260657718E9, 0.0, 2022-10-29 14:08:46.065
13.0, 1336.9955346593633, 219.94725629407912, 895.0814760951325, -370.19773701392114, 0.0, 0.03200000151991844, 0.9920000471174717, 0.0, 0.0, 0.0, 0.0, 0.0, 1.6670453260664752E9, 0.0, 2022-10-29 14:08:46.066
13.0, 1341.2104019094259, 175.2087030741386, 776.1133885546587, -313.2951591880992, 0.0, 0.03200000151991844, 0.9920000471174717, 0.0, 0.0, 0.0, 0.0, 0.0, 1.6670453260664752E9, 0.0, 2022-10-29 14:08:46.066
14.0, 1340.823322264012, 176.6934433565475, 780.2384982057847, -176.36246221046895, 0.0, 0.03200000151991844, 0.9920000471174717, 0.0, 0.0, 0.0, 0.0, 0.0, 1.667045326080158E9, 0.0, 2022-10-29 14:08:46.080
14.0, 1524.5739568369463, -25.93059634277597, 1016.4599291570485, -309.1401303373277, 0.0, 0.03200000151991844, 0.9920000471174717, 0.0, 0.0, 0.0, 0.0, 0.0, 1.667045326080158E9, 0.0, 2022-10-29 14:08:46.080
15.0, 1327.6009059706703, -265.0971985091455, 914.3644002666697, -364.6477254796773, 0.0, 0.03200000151991844, 0.9920000471174717, 0.0, 0.0, 0.0, 0.0, 0.0, 1.6670453260957668E9, 0.0, 2022-10-29 14:08:46.095
15.0, 1393.2772890925407, -264.9550823108293, 827.2789598484524, -273.1735124634579, 0.0, 0.03200000151991844, 0.9920000471174717, 0.0, 0.0, 0.0, 0.0, 0.0, 1.6670453260957668E9, 0.0, 2022-10-29 14:08:46.095
16.0, 1337.8388820993714, -314.95193486846983, 780.9808683469892, -204.29951487947255, 0.0, 0.03200000151991844, 0.9920000471174717, 0.0, 0.0, 0.0, 0.0, 0.0, 1.667045326096522E9, 0.0, 2022-10-29 14:08:46.096
16.0, 1512.0752111850306, -524.236736388877, 997.844577127602, -324.5709575545043, 0.0, 0.03200000151991844, 0.9920000471174717, 0.0, 0.0, 0.0, 0.0, 0.0, 1.667045326096522E9, 0.0, 2022-10-29 14:08:46.096
17.0, 1288.0851230388507, -309.3850937844254, 834.7550198598765, -426.48323134705424, 0.0, 0.03200000151991844, 0.9920000471174717, 0.0, 0.0, 0.0, 0.0, 0.0, 1.667045326110077E9, 0.0, 2022-10-29 14:08:46.110
17.0, 1398.677704628557, -233.47260448383167, 854.7522649229504, -242.97756022121757, 0.0, 0.03200000151991844, 0.9920000471174717, 0.0, 0.0, 0.0, 0.0, 0.0, 1.667045326110077E9, 0.0, 2022-10-29 14:08:46.110
18.0, 1305.4064696836285, -338.50956468936056, 881.5897870049812, -219.78644059598446, 0.0, 0.03200000151991844, 0.9920000471174717, 0.0, 0.0, 0.0, 0.0, 0.0, 1.6670453261258624E9, 0.0, 2022-10-29 14:08:46.125
18.0, 1511.6264231903479, -525.9196913689375, 990.3703870661557, -330.3453630860895, 0.0, 0.03200000151991844, 0.9920000471174717, 0.0, 0.0, 0.0, 0.0, 0.0, 1.6670453261258624E9, 0.0, 2022-10-29 14:08:46.125
19.0, 1267.4371353834867, -319.1013538693078, 811.1992599889636, -432.33617477770895, 0.0, 0.03200000151991844, 0.9920000471174717, 0.0, 0.0, 0.0, 0.0, 0.0, 1.6670453261265085E9, 0.0, 2022-10-29 14:08:46.126
19.0, 1465.6106941355392, -190.48619439313188, 909.5922879232094, -663.9575287834741, 0.0, 0.03200000151991844, 0.9920000471174717, 0.0, 0.0, 0.0, 0.0, 0.0, 1.6670453261265085E9, 0.0, 2022-10-29 14:08:46.126
20.0, 1331.3052768767811, -317.4576678387821, 754.8221381069161, -683.3470401037484, 0.0, 0.03200000151991844, 1.008000047877431, 0.0, 0.0, 0.0, 0.0, 0.0, 1.667045326140057E9, 0.0, 2022-10-29 14:08:46.140
20.0, 1486.5765732871369, -540.2883869986981, 967.3513028388843, -832.34839423839, 0.0, 0.03200000151991844, 1.008000047877431, 0.0, 0.0, 0.0, 0.0, 0.0, 1.667045326140057E9, 0.0, 2022-10-29 14:08:46.140
21.0, 1262.6687629399821, -321.1283796452917, 826.3645543092862, -911.89980619587, 0.0, 0.03200000151991844, 1.008000047877431, 0.0, 0.0, 0.0, 0.0, 0.0, 1.6670453261559603E9, 0.0, 2022-10-29 14:08:46.155
21.0, 1462.7234913697466, -164.2433164040558, 934.8777515236288, -667.33652839344, 0.0, 0.03200000151991844, 1.008000047877431, 0.0, 0.0, 0.0, 0.0, 0.0, 1.6670453261559603E9, 0.0, 2022-10-29 14:08:46.155
22.0, 1313.6155500863679, -310.7707267180085, 801.690564351622, -700.2195987538435, 0.0, 0.03200000151991844, 1.008000047877431, 0.0, 0.0, 0.0, 0.0, 0.0, 1.6670453261566176E9, 0.0, 2022-10-29 14:08:46.156
22.0, 1477.6681315926835, -549.7465939866379, 954.8675167867914, -835.8508105468936, 0.0, 0.03200000151991844, 1.008000047877431, 0.0, 0.0, 0.0, 0.0, 0.0, 1.6670453261566176E9, 0.0, 2022-10-29 14:08:46.156
23.0, 1233.8528337813914, -353.54209256125614, 775.3448391137645, -943.4701716718264, 0.0, 0.03200000151991844, 1.008000047877431, 0.0, 0.0, 0.0, 0.0, 0.0, 1.6670453261701138E9, 0.0, 2022-10-29 14:08:46.170
23.0, 1040.8309872183017, -139.5263175969012, 989.2708564791828, -1081.7062237840146, 0.0, 0.03200000151991844, 1.008000047877431, 0.0, 0.0, 0.0, 0.0, 0.0, 1.6670453261701138E9, 0.0, 2022-10-29 14:08:46.170
24.0, 816.9587059207261, -345.00203101243824, 856.7269320995547, -1211.9987283903174, 0.0, 0.03200000151991844, 1.008000047877431, 0.0, 0.0, 0.0, 0.0, 0.0, 1.6670453261858163E9, 0.0, 2022-10-29 14:08:46.185
24.0, 993.3492173808627, -550.408556278795, 961.1056699128821, -1326.7874777303077, 0.0, 0.03200000151991844, 1.008000047877431, 0.0, 0.0, 0.0, 0.0, 0.0, 1.6670453261858163E9, 0.0, 2022-10-29 14:08:46.185
25.0, 756.1161434915848, -343.3957439814694, 806.3486097464338, -1410.2358654416166, 0.0, 0.03200000151991844, 1.008000047877431, 0.0, 0.0, 0.0, 0.0, 0.0, 1.6670453261864517E9, 0.0, 2022-10-29 14:08:46.186
25.0, 590.7433773009107, -117.4085492589511, 1016.9760353509337, -1546.033502782695, 0.0, 0.03200000151991844, 1.008000047877431, 0.0, 0.0, 0.0, 0.0, 0.0, 1.6670453261864517E9, 0.0, 2022-10-29 14:08:46.186
26.0, 813.7349121589214, -329.50388559605926, 1225.4118795813993, -1758.2185967187397, 0.0, 0.03200000151991844, 1.008000047877431, 0.0, 0.0, 0.0, 0.0, 0.0, 1.6670453262001078E9, 0.0, 2022-10-29 14:08:46.200
26.0, 965.6776976087131, -563.8460168195888, 1413.5494168023579, -1846.6335715712048, 0.0, 0.03200000151991844, 1.008000047877431, 0.0, 0.0, 0.0, 0.0, 0.0, 1.6670453262001078E9, 0.0, 2022-10-29 14:08:46.200
27.0, 754.0217995163985, -348.16037652501836, 1306.4573815711774, -1869.9219285952859, 0.0, 0.03200000151991844, 1.008000047877431, 0.0, 0.0, 0.0, 0.0, 0.0, 1.6670453262158396E9, 0.0, 2022-10-29 14:08:46.215
27.0, 597.3704800223932, -566.9650933826342, 1541.753187283408, -2013.4013204453513, 0.0, 0.03200000151991844, 1.008000047877431, 0.0, 0.0, 0.0, 0.0, 0.0, 1.6670453262158396E9, 0.0, 2022-10-29 14:08:46.215
28.0, 824.1131345359609, -356.11701368074864, 1737.3424751660787, -2226.151139274705, 0.0, 0.03200000151991844, 1.008000047877431, 0.0, 0.0, 0.0, 0.0, 0.0, 1.6670453262165368E9, 0.0, 2022-10-29 14:08:46.216
28.0, 962.1173128508963, -575.5406839810312, 1893.5038677658886, -2346.1832283525728, 0.0, 0.03200000151991844, 1.008000047877431, 0.0, 0.0, 0.0, 0.0, 0.0, 1.6670453262165368E9, 0.0, 2022-10-29 14:08:46.216
29.0, 723.7772285747342, -374.9343203078024, 1748.0292392894626, -2391.5930936145596, 0.0, 0.03200000151991844, 1.008000047877431, 0.0, 0.0, 0.0, 0.0, 0.0, 1.6670453262301433E9, 0.0, 2022-10-29 14:08:46.230
29.0, 634.470287582837, -540.8306724922732, 1586.762883250136, -2492.6508002672344, 0.0, 0.03200000151991844, 1.008000047877431, 0.0, 0.0, 0.0, 0.0, 0.0, 1.6670453262301433E9, 0.0, 2022-10-29 14:08:46.230
30.0, 816.405200727284, -354.37048040144145, 1718.897288584616, -2286.0101080155, 0.0, 0.03200000151991844, 1.008000047877431, 0.0, 0.0, 0.0, 0.0, 0.0, 1.6670453262457952E9, 0.0, 2022-10-29 14:08:46.245
30.0, 949.3866934017278, -586.5846085501835, 1884.3186734747142, -2357.012108674273, 0.0, 0.03200000151991844, 1.008000047877431, 0.0, 0.0, 0.0, 0.0, 0.0, 1.6670453262457952E9, 0.0, 2022-10-29 14:08:46.245
31.0, 721.1480789058842, -382.2645242209546, 1727.5121481325477, -2370.7076223120093, 0.0, 0.03200000151991844, 1.008000047877431, 0.0, 0.0, 0.0, 0.0, 0.0, 1.6670453262464595E9, 0.0, 2022-10-29 14:08:46.246
31.0, 669.8946199631318, -500.21161907352507, 1627.9541413621046, -2408.4675222146325, 0.0, 0.03200000151991844, 1.008000047877431, 0.0, 0.0, 0.0, 0.0, 0.0, 1.6670453262464595E9, 0.0, 2022-10-29 14:08:46.246
32.0, 804.1944273719564, -359.0266558462754, 1801.6724943039007, -2269.0328321666457, 0.0, 0.03200000151991844, 1.008000047877431, 0.0, 0.0, 0.0, 0.0, 0.0, 1.6670453262600572E9, 0.0, 2022-10-29 14:08:46.260
32.0, 949.0650620055385, -597.7033311184496, 1874.4565572915599, -2344.780765869189, 0.0, 0.03200000151991844, 1.008000047877431, 0.0, 0.0, 0.0, 0.0, 0.0, 1.6670453262600572E9, 0.0, 2022-10-29 14:08:46.260
33.0, 1171.83033291623, -419.8505187756382, 1680.25477229245, -2410.1579569946043, 0.0, 0.03200000151991844, 1.008000047877431, 0.0, 0.0, 0.0, 0.0, 0.0, 1.6670453262757087E9, 0.0, 2022-10-29 14:08:46.275
33.0, 1191.0982974879444, -471.8594375094399, 1674.1232063150965, -2372.8786342362873, 0.0, 0.03200000151991844, 1.008000047877431, 0.0, 0.0, 0.0, 0.0, 0.0, 1.6670453262757087E9, 0.0, 2022-10-29 14:08:46.275
34.0, 1287.0903096506372, -361.8428005129099, 1797.7568190502934, -2311.7985881599598, 0.0, 0.03200000151991844, 1.008000047877431, 0.0, 0.0, 0.0, 0.0, 0.0, 1.667045326276536E9, 0.0, 2022-10-29 14:08:46.276
34.0, 1434.750909651164, -593.8400144642219, 1867.0814745789394, -2358.8614892023616, 0.0, 0.03200000151991844, 1.008000047877431, 0.0, 0.0, 0.0, 0.0, 0.0, 1.667045326276536E9, 0.0, 2022-10-29 14:08:46.276
35.0, 1198.531348649878, -404.1653783614747, 1724.722182765603, -2373.2488843319006, 0.0, 0.03200000151991844, 1.008000047877431, 0.0, 0.0, 0.0, 0.0, 0.0, 1.667045326290042E9, 0.0, 2022-10-29 14:08:46.290
35.0, 1232.0632916525938, -444.93589772842824, 1700.915849597659, -2340.079711624887, 0.0, 0.03200000151991844, 1.008000047877431, 0.0, 0.0, 0.0, 0.0, 0.0, 1.667045326290042E9, 0.0, 2022-10-29 14:08:46.290
36.0, 1306.7416139678098, -358.2076177559793, 1688.16840059869, -2335.374917480629, 0.0, 0.03200000151991844, 1.008000047877431, 0.0, 0.0, 0.0, 0.0, 0.0, 1.6670453263057735E9, 0.0, 2022-10-29 14:08:46.305
36.0, 1404.6765041574836, -129.17801441950724, 1830.4547643628903, -2392.1129397084005, 0.0, 0.03200000151991844, 1.008000047877431, 0.0, 0.0, 0.0, 0.0, 0.0, 1.6670453263057735E9, 0.0, 2022-10-29 14:08:46.305
37.0, 1167.331233269535, 62.160877163521945, 1683.2410824070685, -2414.406483344268, 0.0, 0.03200000151991844, 1.008000047877431, 0.0, 0.0, 0.0, 0.0, 0.0, 1.6670453263066194E9, 0.0, 2022-10-29 14:08:46.306
37.0, 1253.479828748852, 55.142954896669835, 1773.9373962325044, -2326.343059087638, 0.0, 0.03200000151991844, 1.008000047877431, 0.0, 0.0, 0.0, 0.0, 0.0, 1.6670453263066194E9, 0.0, 2022-10-29 14:08:46.306
38.0, 1286.6789206555113, 119.16630223812535, 1774.6629368239082, -2361.8440594170243, 0.0, 0.03200000151991844, 1.008000047877431, 0.0, 0.0, 0.0, 0.0, 0.0, 1.6670453263200903E9, 0.0, 2022-10-29 14:08:46.320
38.0, 1406.047177491244, 362.27288900781423, 1833.0596046820283, -2402.9941786294803, 0.0, 0.03200000151991844, 1.008000047877431, 0.0, 0.0, 0.0, 0.0, 0.0, 1.6670453263200903E9, 0.0, 2022-10-29 14:08:46.320
39.0, 1625.6372733395547, 522.9857398536988, 1650.0962190497667, -2409.681119750254, 0.0, 0.03200000151991844, 1.008000047877431, 0.0, 0.0, 0.0, 0.0, 0.0, 1.6670453263357265E9, 0.0, 2022-10-29 14:08:46.335
39.0, 1785.69003184326, 586.3957436024211, 1797.3547798050568, -2296.018080296926, 0.0, 0.03200000151991844, 1.008000047877431, 0.0, 0.0, 0.0, 0.0, 0.0, 1.6670453263357265E9, 0.0, 2022-10-29 14:08:46.335
40.0, 1762.9233908629976, 603.3524500015192, 1683.0279081095941, -2391.1966642192565, 0.0, 0.03200000151991844, 1.008000047877431, 0.0, 0.0, 0.0, 0.0, 0.0, 1.6670453263364203E9, 0.0, 2022-10-29 14:08:46.336
40.0, 1872.126599619165, 829.2629767749459, 1807.6656839828938, -2438.6298153572716, 0.0, 0.03200000151991844, 1.008000047877431, 0.0, 0.0, 0.0, 0.0, 0.0, 1.6670453263364203E9, 0.0, 2022-10-29 14:08:46.336
41.0, 2116.534671573434, 1025.3590211016126, 1667.5278927432373, -2430.6806580014527, 0.0, 0.01600000075995922, 1.008000047877431, 0.0, 0.0, 0.0, 0.0, 0.0, 1.667045326350088E9, 0.0, 2022-10-29 14:08:46.350
41.0, 2298.6191807161085, 1105.4676781524904, 1829.1027905289084, -2270.212770602666, 0.0, 0.01600000075995922, 1.008000047877431, 0.0, 0.0, 0.0, 0.0, 0.0, 1.667045326350088E9, 0.0, 2022-10-29 14:08:46.350
42.0, 2237.926214285195, 1071.8067086013034, 1676.094133591745, -2395.7294229655527, 0.0, 0.01600000075995922, 1.008000047877431, 0.0, 0.0, 0.0, 0.0, 0.0, 1.6670453263658133E9, 0.0, 2022-10-29 14:08:46.365
42.0, 2356.1014430350624, 1312.8713099951856, 1778.6851992262527, -2440.62692193361, 0.0, 0.01600000075995922, 1.008000047877431, 0.0, 0.0, 0.0, 0.0, 0.0, 1.6670453263658133E9, 0.0, 2022-10-29 14:08:46.365
43.0, 2574.7565638944507, 1484.0558807170019, 1627.4099859185517, -2444.6585340858437, 0.0, 0.01600000075995922, 1.008000047877431, 0.0, 0.0, 0.0, 0.0, 0.0, 1.6670453263666236E9, 0.0, 2022-10-29 14:08:46.366
43.0, 2808.979018319398, 1624.6648993510753, 1854.8894007233903, -2237.636372038629, 0.0, 0.01600000075995922, 1.008000047877431, 0.0, 0.0, 0.0, 0.0, 0.0, 1.6670453263666236E9, 0.0, 2022-10-29 14:08:46.366
44.0, 2731.6322773857974, 1578.9016135432757, 1654.6682467455976, -2422.0826280033216, 0.0, 0.01600000075995922, 1.008000047877431, 0.0, 0.0, 0.0, 0.0, 0.0, 1.6670453263801908E9, 0.0, 2022-10-29 14:08:46.380
44.0, 2835.7267828024924, 1789.5084696980193, 1764.305283896625, -2455.113424411975, 0.0, 0.01600000075995922, 1.008000047877431, 0.0, 0.0, 0.0, 0.0, 0.0, 1.6670453263801908E9, 0.0, 2022-10-29 14:08:46.380
45.0, 3080.1423345566727, 1977.5151104205288, 1641.1765576554462, -2441.7675914200954, 0.0, 0.01600000075995922, 1.008000047877431, 0.0, 0.0, 0.0, 0.0, 0.0, 1.6670453263958704E9, 0.0, 2022-10-29 14:08:46.395
45.0, 2835.367752406746, 2154.0234287292697, 1881.9064380032942, -2229.094440539833, 0.0, 0.01600000075995922, 1.008000047877431, 0.0, 0.0, 0.0, 0.0, 0.0, 1.6670453263958704E9, 0.0, 2022-10-29 14:08:46.395
46.0, 2718.9053978365846, 2040.1752642281353, 1641.0737104066648, -2455.8427049033344, 0.0, 0.01600000075995922, 1.008000047877431, 0.0, 0.0, 0.0, 0.0, 0.0, 1.6670453263965156E9, 0.0, 2022-10-29 14:08:46.396
46.0, 2816.2082449337468, 2267.548091884237, 1740.6242373771966, -2490.859388188459, 0.0, 0.01600000075995922, 1.008000047877431, 0.0, 0.0, 0.0, 0.0, 0.0, 1.6670453263965156E9, 0.0, 2022-10-29 14:08:46.396
47.0, 3046.415916756261, 2448.0038745962083, 1600.4116481384262, -2494.4459522459656, 0.0, 0.01600000075995922, 1.008000047877431, 0.0, 0.0, 0.0, 0.0, 0.0, 1.6670453264101467E9, 0.0, 2022-10-29 14:08:46.410
47.0, 2872.374062468298, 2686.070946175605, 1401.4583202456124, -2706.732023480814, 0.0, 0.01600000075995922, 1.008000047877431, 0.0, 0.0, 0.0, 0.0, 0.0, 1.6670453264101467E9, 0.0, 2022-10-29 14:08:46.410
48.0, 2716.934470559936, 2524.3071834421717, 1241.4261311916634, -2940.1223501656204, 0.0, 0.01600000075995922, 1.008000047877431, 0.0, 0.0, 0.0, 0.0, 0.0, 1.6670453264258296E9, 0.0, 2022-10-29 14:08:46.425
48.0, 2818.156732810661, 2752.3045743908733, 1250.8712485297583, -2966.069776058197, 0.0, 0.01600000075995922, 1.008000047877431, 0.0, 0.0, 0.0, 0.0, 0.0, 1.6670453264258296E9, 0.0, 2022-10-29 14:08:46.425
49.0, 3000.863935295958, 2888.8501917230897, 1048.1350118317641, -3030.9757397891954, 0.0, 0.01600000075995922, 1.008000047877431, 0.0, 0.0, 0.0, 0.0, 0.0, 1.6670453264265025E9, 0.0, 2022-10-29 14:08:46.426
49.0, 2894.3983333073556, 2687.3312924606726, 959.7406064290553, -3149.5025191348977, 0.0, 0.01600000075995922, 1.008000047877431, 0.0, 0.0, 0.0, 0.0, 0.0, 1.6670453264265025E9, 0.0, 2022-10-29 14:08:46.426
50.0, 2718.9278372363187, 2530.923066463787, 1153.6207600319758, -2940.8722001067363, 0.0, 0.01600000075995922, 0.9920000471174717, 0.0, 0.0, 0.0, 0.0, 0.0, 1.667045326440045E9, 0.0, 2022-10-29 14:08:46.440
50.0, 2807.643874035217, 2737.1654593702406, 1234.9243151186965, -2980.8292912333272, 0.0, 0.01600000075995922, 0.9920000471174717, 0.0, 0.0, 0.0, 0.0, 0.0, 1.667045326440045E9, 0.0, 2022-10-29 14:08:46.440
51.0, 3028.4195181694813, 2902.500826561358, 1092.6211218046956, -2996.477032647934, 0.0, 0.01600000075995922, 0.9920000471174717, 0.0, 0.0, 0.0, 0.0, 0.0, 1.6670453264560192E9, 0.0, 2022-10-29 14:08:46.456
51.0, 2933.772000040859, 2716.308037317358, 1010.6967433253303, -3101.8692833492532, 0.0, 0.01600000075995922, 0.9920000471174717, 0.0, 0.0, 0.0, 0.0, 0.0, 1.6670453264560192E9, 0.0, 2022-10-29 14:08:46.456
52.0, 2723.7897071787156, 2508.6070834281854, 1142.8947269590572, -2926.6512305252254, 0.0, 0.01600000075995922, 0.9920000471174717, 0.0, 0.0, 0.0, 0.0, 0.0, 1.6670453264565587E9, 0.0, 2022-10-29 14:08:46.456
52.0, 2795.290984481573, 2733.6462135119364, 1222.6499634641223, -2994.160164625384, 0.0, 0.01600000075995922, 0.9920000471174717, 0.0, 0.0, 0.0, 0.0, 0.0, 1.6670453264565587E9, 0.0, 2022-10-29 14:08:46.456
53.0, 2987.415255055297, 2877.495855457615, 1044.0697405799292, -3045.0265439227223, 0.0, 0.01600000075995922, 0.9920000471174717, 0.0, 0.0, 0.0, 0.0, 0.0, 1.6670453264700527E9, 0.0, 2022-10-29 14:08:46.470
53.0, 2966.0024578589946, 2764.7846205430105, 1027.6497098244727, -3107.155631936621, 0.0, 0.01600000075995922, 0.9920000471174717, 0.0, 0.0, 0.0, 0.0, 0.0, 1.6670453264700527E9, 0.0, 2022-10-29 14:08:46.470
54.0, 3186.899648741819, 2525.8031434244476, 1129.4161275187507, -2945.4760169521905, 0.0, 0.01600000075995922, 0.9920000471174717, 0.0, 0.0, 0.0, 0.0, 0.0, 1.667045326485783E9, 0.0, 2022-10-29 14:08:46.485
54.0, 3269.2092369166203, 2724.9397264150903, 1196.747416371014, -3008.762604002375, 0.0, 0.01600000075995922, 0.9920000471174717, 0.0, 0.0, 0.0, 0.0, 0.0, 1.667045326485783E9, 0.0, 2022-10-29 14:08:46.485
55.0, 3468.985342799686, 2863.168298727367, 1060.1400906895287, -3050.062319213059, 0.0, 0.01600000075995922, 0.9920000471174717, 0.0, 0.0, 0.0, 0.0, 0.0, 1.667045326486473E9, 0.0, 2022-10-29 14:08:46.486
55.0, 3481.009121157229, 2788.547944861464, 1063.8089325460605, -3062.9818036099896, 0.0, 0.01600000075995922, 0.9920000471174717, 0.0, 0.0, 0.0, 0.0, 0.0, 1.667045326486473E9, 0.0, 2022-10-29 14:08:46.486
56.0, 3667.2449192507192, 2984.65333893802, 1094.9249001774006, -2959.8054436324164, 0.0, 0.01600000075995922, 0.9920000471174717, 0.0, 0.0, 0.0, 0.0, 0.0, 1.6670453265001469E9, 0.0, 2022-10-29 14:08:46.500
56.0, 3742.5496748085134, 3189.05944096623, 1174.6202982831746, -3026.783311938867, 0.0, 0.01600000075995922, 0.9920000471174717, 0.0, 0.0, 0.0, 0.0, 0.0, 1.6670453265001469E9, 0.0, 2022-10-29 14:08:46.500
57.0, 3933.3612404977903, 3328.4586019646376, 1015.8652850640938, -3107.819464178756, 0.0, 0.01600000075995922, 0.9920000471174717, 0.0, 0.0, 0.0, 0.0, 0.0, 1.6670453265158288E9, 0.0, 2022-10-29 14:08:46.515
57.0, 4011.2932757744566, 3293.428829029668, 1126.9814526475966, -3028.376509319991, 0.0, 0.01600000075995922, 0.9920000471174717, 0.0, 0.0, 0.0, 0.0, 0.0, 1.6670453265158288E9, 0.0, 2022-10-29 14:08:46.515
58.0, 4140.910728438757, 3465.1089364956133, 1194.539005447179, -2940.3056052634493, 0.0, 0.01600000075995922, 0.9920000471174717, 0.0, 0.0, 0.0, 0.0, 0.0, 1.667045326516476E9, 0.0, 2022-10-29 14:08:46.516
58.0, 4233.561139991041, 3680.648720691912, 1181.1389439059421, -3030.0594643000513, 0.0, 0.01600000075995922, 0.9920000471174717, 0.0, 0.0, 0.0, 0.0, 0.0, 1.667045326516476E9, 0.0, 2022-10-29 14:08:46.516
59.0, 4401.346141653135, 3805.8661810583435, 974.1504409583285, -3118.743711949326, 0.0, 0.01600000075995922, 0.9920000471174717, 0.0, 0.0, 0.0, 0.0, 0.0, 1.6670453265300484E9, 0.0, 2022-10-29 14:08:46.530
59.0, 4569.387326462194, 3872.8403094648384, 1178.2928800396621, -2944.950561008416, 0.0, 0.01600000075995922, 0.9920000471174717, 0.0, 0.0, 0.0, 0.0, 0.0, 1.6670453265300484E9, 0.0, 2022-10-29 14:08:46.530
60.0, 4623.915067816153, 3939.0140992808156, 1103.3808139772154, -2947.7311766254716, 0.0, 0.01600000075995922, 1.008000047877431, 0.0, 0.0, 0.0, 0.0, 0.0, 1.667045326545838E9, 0.0, 2022-10-29 14:08:46.545
60.0, 4694.57486762898, 4148.9776926431805, 1141.3389285774902, -3042.174870206509, 0.0, 0.01600000075995922, 1.008000047877431, 0.0, 0.0, 0.0, 0.0, 0.0, 1.667045326545838E9, 0.0, 2022-10-29 14:08:46.545
61.0, 4900.480669539422, 4301.0251952917315, 1014.6423377785832, -3080.247051755432, 0.0, 0.01600000075995922, 1.008000047877431, 0.0, 0.0, 0.0, 0.0, 0.0, 1.667045326546498E9, 0.0, 2022-10-29 14:08:46.546
61.0, 5080.5119736064225, 4377.50614938559, 1220.7631839364767, -2922.879541419912, 0.0, 0.01600000075995922, 1.008000047877431, 0.0, 0.0, 0.0, 0.0, 0.0, 1.667045326546498E9, 0.0, 2022-10-29 14:08:46.546
62.0, 5098.897321788594, 4428.320170083549, 1058.84608530486, -2958.496478647925, 0.0, 0.01600000075995922, 1.008000047877431, 0.0, 0.0, 0.0, 0.0, 0.0, 1.6670453265601196E9, 0.0, 2022-10-29 14:08:46.560
62.0, 5171.3410538802855, 4632.228865417652, 1130.4109409069642, -3063.688644701615, 0.0, 0.01600000075995922, 1.008000047877431, 0.0, 0.0, 0.0, 0.0, 0.0, 1.6670453265601196E9, 0.0, 2022-10-29 14:08:46.560
63.0, 5363.633619952016, 4766.081754781771, 971.6297483881935, -3130.0008108159527, 0.0, 0.01600000075995922, 1.008000047877431, 0.0, 0.0, 0.0, 0.0, 0.0, 1.6670453265757663E9, 0.0, 2022-10-29 14:08:46.575
63.0, 5607.512496062554, 4896.219053539913, 775.7393985590898, -2887.5730158882216, 0.0, 0.01600000075995922, 1.008000047877431, 0.0, 0.0, 0.0, 0.0, 0.0, 1.6670453265757663E9, 0.0, 2022-10-29 14:08:46.575
64.0, 5575.283908194397, 4897.161508328747, 593.8923730636016, -2982.4187487144955, 0.0, 0.01600000075995922, 1.008000047877431, 0.0, 0.0, 0.0, 0.0, 0.0, 1.667045326576532E9, 0.0, 2022-10-29 14:08:46.576
64.0, 5652.4025152307, 5109.488718463108, 622.856028270442, -3063.0771710588597, 0.0, 0.01600000075995922, 1.008000047877431, 0.0, 0.0, 0.0, 0.0, 0.0, 1.667045326576532E9, 0.0, 2022-10-29 14:08:46.576
65.0, 5850.929494528566, 5260.324493526015, 485.5904801967554, -3141.0840043346398, 0.0, 0.01600000075995922, 1.008000047877431, 0.0, 0.0, 0.0, 0.0, 0.0, 1.667045326590027E9, 0.0, 2022-10-29 14:08:46.590
65.0, 5651.336643743329, 5418.406324753072, 321.87448968645185, -3332.6959086144343, 0.0, 0.01600000075995922, 1.008000047877431, 0.0, 0.0, 0.0, 0.0, 0.0, 1.667045326590027E9, 0.0, 2022-10-29 14:08:46.590
66.0, 5599.155689611565, 5406.246040047146, 530.1719576185569, -3438.3798715122975, 0.0, 0.01600000075995922, 1.008000047877431, 0.0, 0.0, 0.0, 0.0, 0.0, 1.6670453266057737E9, 0.0, 2022-10-29 14:08:46.605
66.0, 5640.9434617664665, 5594.103084771428, 610.7499721138738, -3564.3658813196234, 0.0, 0.01600000075995922, 1.008000047877431, 0.0, 0.0, 0.0, 0.0, 0.0, 1.6670453266057737E9, 0.0, 2022-10-29 14:08:46.605
67.0, 5832.779760043602, 5713.291826409288, 461.9879715763964, -3653.1436264677905, 0.0, 0.01600000075995922, 1.008000047877431, 0.0, 0.0, 0.0, 0.0, 0.0, 1.667045326606552E9, 0.0, 2022-10-29 14:08:46.606
67.0, 5689.539721790701, 5924.285762209445, 372.53517448622733, -3802.7527143452317, 0.0, 0.01600000075995922, 1.008000047877431, 0.0, 0.0, 0.0, 0.0, 0.0, 1.667045326606552E9, 0.0, 2022-10-29 14:08:46.606
68.0, 5592.865177886095, 5866.981145138387, 616.8553587915376, -3928.0748919104226, 0.0, 0.01600000075995922, 1.008000047877431, 0.0, 0.0, 0.0, 0.0, 0.0, 1.6670453266200595E9, 0.0, 2022-10-29 14:08:46.620
68.0, 5641.010779965669, 6080.613580357283, 608.1900105942041, -4064.416684695054, 0.0, 0.01600000075995922, 1.008000047877431, 0.0, 0.0, 0.0, 0.0, 0.0, 1.6670453266200595E9, 0.0, 2022-10-29 14:08:46.620
69.0, 5798.597074448597, 6157.578851495404, 413.40480120200664, -4187.5566306361, 0.0, 0.01600000075995922, 1.008000047877431, 0.0, 0.0, 0.0, 0.0, 0.0, 1.6670453266356995E9, 0.0, 2022-10-29 14:08:46.635
69.0, 5710.400883743539, 5984.677666693926, 413.8685487965122, -4264.110512779094, 0.0, 0.01600000075995922, 1.008000047877431, 0.0, 0.0, 0.0, 0.0, 0.0, 1.6670453266356995E9, 0.0, 2022-10-29 14:08:46.635
70.0, 5608.232426804025, 5909.874057730194, 615.3818382089958, -4424.681247426663, 0.0, 0.01600000075995922, 1.008000047877431, 0.0, 0.0, 0.0, 0.0, 0.0, 1.6670453266365392E9, 0.0, 2022-10-29 14:08:46.636
70.0, 5627.636897724122, 6070.6130878757685, 585.4401991637424, -4575.298238342162, 0.0, 0.01600000075995922, 1.008000047877431, 0.0, 0.0, 0.0, 0.0, 0.0, 1.6670453266365392E9, 0.0, 2022-10-29 14:08:46.636
71.0, 5781.079383056145, 6154.960921526421, 418.02731754723936, -4688.8939595962875, 0.0, 0.03200000151991844, 1.008000047877431, 0.0, 0.0, 0.0, 0.0, 0.0, 1.6670453266500869E9, 0.0, 2022-10-29 14:08:46.650
71.0, 5756.786862893961, 6016.358359218575, 444.9246780285612, -4694.756252776831, 0.0, 0.03200000151991844, 1.008000047877431, 0.0, 0.0, 0.0, 0.0, 0.0, 1.6670453266500869E9, 0.0, 2022-10-29 14:08:46.650
72.0, 5646.7571362475865, 5927.253372824285, 564.3322038138285, -4867.967849274632, 0.0, 0.03200000151991844, 1.008000047877431, 0.0, 0.0, 0.0, 0.0, 0.0, 1.6670453266657372E9, 0.0, 2022-10-29 14:08:46.665
72.0, 5577.228656171355, 6025.9287632051855, 522.5874405084178, -5088.6780451596715, 0.0, 0.03200000151991844, 1.008000047877431, 0.0, 0.0, 0.0, 0.0, 0.0, 1.6670453266657372E9, 0.0, 2022-10-29 14:08:46.665
73.0, 5677.014796839096, 6060.098359150346, 288.97832967620343, -5289.046925185714, 0.0, 0.03200000151991844, 1.008000047877431, 0.0, 0.0, 0.0, 0.0, 0.0, 1.667045326666496E9, 0.0, 2022-10-29 14:08:46.666
73.0, 5794.556112546474, 6052.549371089786, 513.1180138206109, -5158.008310538251, 0.0, 0.03200000151991844, 1.008000047877431, 0.0, 0.0, 0.0, 0.0, 0.0, 1.667045326666496E9, 0.0, 2022-10-29 14:08:46.666
74.0, 5735.4376439969055, 6004.560844808351, 676.5105029847473, -5248.037052221596, 0.0, 0.03200000151991844, 1.008000047877431, 0.0, 0.0, 0.0, 0.0, 0.0, 1.6670453266807973E9, 0.0, 2022-10-29 14:08:46.680
74.0, 5618.75276537938, 6060.13014829997, 568.6704877624288, -5066.238645425532, 0.0, 0.03200000151991844, 1.008000047877431, 0.0, 0.0, 0.0, 0.0, 0.0, 1.6670453266807973E9, 0.0, 2022-10-29 14:08:46.680
75.0, 5628.104385218583, 6034.343538105488, 736.3208530261181, -4833.757114429958, 0.0, 0.03200000151991844, 1.008000047877431, 0.0, 0.0, 0.0, 0.0, 0.0, 1.6670453266957948E9, 0.0, 2022-10-29 14:08:46.695
75.0, 5762.841760922223, 6002.795612029266, 971.6989365373738, -4690.212274330668, 0.0, 0.03200000151991844, 1.008000047877431, 0.0, 0.0, 0.0, 0.0, 0.0, 1.6670453266957948E9, 0.0, 2022-10-29 14:08:46.695
76.0, 5727.06026809616, 6004.3401907109655, 1075.8738498031162, -4774.058961387258, 0.0, 0.03200000151991844, 1.008000047877431, 0.0, 0.0, 0.0, 0.0, 0.0, 1.6670453266965218E9, 0.0, 2022-10-29 14:08:46.696
76.0, 5591.305639604572, 6038.85385745205, 1037.8353273537941, -4588.93204363063, 0.0, 0.03200000151991844, 1.008000047877431, 0.0, 0.0, 0.0, 0.0, 0.0, 1.6670453266965218E9, 0.0, 2022-10-29 14:08:46.696
77.0, 5636.373304020613, 6040.766816279385, 1248.389824909158, -4825.764948224649, 0.0, 0.03200000151991844, 1.008000047877431, 0.0, 0.0, 0.0, 0.0, 0.0, 1.6670453267101076E9, 0.0, 2022-10-29 14:08:46.710
77.0, 5807.3577900948, 6040.5704715317115, 1008.0283247069456, -4669.725102373399, 0.0, 0.03200000151991844, 1.008000047877431, 0.0, 0.0, 0.0, 0.0, 0.0, 1.6670453267101076E9, 0.0, 2022-10-29 14:08:46.710
78.0, 5718.080768302549, 5998.281552782748, 1079.87928265566, -4810.242493458558, 0.0, 0.03200000151991844, 1.008000047877431, 0.0, 0.0, 0.0, 0.0, 0.0, 1.6670453267257688E9, 0.0, 2022-10-29 14:08:46.725
78.0, 5584.102592289913, 6033.40482321661, 1019.8202292672358, -4618.716606877744, 0.0, 0.03200000151991844, 1.008000047877431, 0.0, 0.0, 0.0, 0.0, 0.0, 1.6670453267257688E9, 0.0, 2022-10-29 14:08:46.725
79.0, 5591.730118249543, 5990.489471225068, 1189.9501482015476, -4397.1481039528735, 0.0, 0.03200000151991844, 1.008000047877431, 0.0, 0.0, 0.0, 0.0, 0.0, 1.6670453267264616E9, 0.0, 2022-10-29 14:08:46.726
79.0, 5348.645970879588, 6104.765854271129, 1063.5284400493838, -4615.799484912306, 0.0, 0.03200000151991844, 1.008000047877431, 0.0, 0.0, 0.0, 0.0, 0.0, 1.6670453267264616E9, 0.0, 2022-10-29 14:08:46.726
80.0, 5204.261523240246, 5974.6865239623, 1098.043976740446, -4787.78439422464, 0.0, 0.03200000151991844, 0.9920000471174717, 0.0, 0.0, 0.0, 0.0, 0.0, 1.667045326740094E9, 0.0, 2022-10-29 14:08:46.740
80.0, 5087.101677328348, 6019.888824776746, 1008.0694636064582, -4611.105910467915, 0.0, 0.03200000151991844, 0.9920000471174717, 0.0, 0.0, 0.0, 0.0, 0.0, 1.667045326740094E9, 0.0, 2022-10-29 14:08:46.740
81.0, 5074.96944187209, 5955.75328043662, 1145.75575042516, -4418.992859594058, 0.0, 0.03200000151991844, 0.9920000471174717, 0.0, 0.0, 0.0, 0.0, 0.0, 1.6670453267560723E9, 0.0, 2022-10-29 14:08:46.756
81.0, 4873.719815406483, 6126.8761428091675, 1068.6371433888562, -4581.684117516503, 0.0, 0.03200000151991844, 0.9920000471174717, 0.0, 0.0, 0.0, 0.0, 0.0, 1.6670453267560723E9, 0.0, 2022-10-29 14:08:46.756
82.0, 4717.633220805787, 5981.624038380105, 1142.7918797102757, -4747.576729801018, 0.0, 0.03200000151991844, 0.9920000471174717, 0.0, 0.0, 0.0, 0.0, 0.0, 1.667045326756568E9, 0.0, 2022-10-29 14:08:46.756
82.0, 4596.1425707452, 6021.29128726013, 1000.3540499978699, -4607.560485309921, 0.0, 0.03200000151991844, 0.9920000471174717, 0.0, 0.0, 0.0, 0.0, 0.0, 1.667045326756568E9, 0.0, 2022-10-29 14:08:46.756
83.0, 4593.094552281313, 5967.103876802139, 1148.5307561922818, -4426.741932302248, 0.0, 0.03200000151991844, 0.9920000471174717, 0.0, 0.0, 0.0, 0.0, 0.0, 1.667045326770062E9, 0.0, 2022-10-29 14:08:46.770
83.0, 4445.561108879279, 6185.2859003171325, 1152.1397596495226, -4526.2401006734, 0.0, 0.03200000151991844, 0.9920000471174717, 0.0, 0.0, 0.0, 0.0, 0.0, 1.667045326770062E9, 0.0, 2022-10-29 14:08:46.770
84.0, 4228.181293904781, 5997.77666628873, 1049.2719414182939, -4314.591682380997, 0.0, 0.03200000151991844, 0.9920000471174717, 0.0, 0.0, 0.0, 0.0, 0.0, 1.667045326785783E9, 0.0, 2022-10-29 14:08:46.785
84.0, 4083.866034414619, 6000.972410800867, 978.2175821601413, -4147.7229562080465, 0.0, 0.03200000151991844, 0.9920000471174717, 0.0, 0.0, 0.0, 0.0, 0.0, 1.667045326785783E9, 0.0, 2022-10-29 14:08:46.785
85.0, 4085.1619097492658, 5943.617305080406, 1177.6645768471062, -3952.782540967688, 0.0, 0.03200000151991844, 0.9920000471174717, 0.0, 0.0, 0.0, 0.0, 0.0, 1.6670453267865124E9, 0.0, 2022-10-29 14:08:46.786
85.0, 3989.5120984325185, 6187.062352796085, 1182.492787689902, -4017.970867145341, 0.0, 0.03200000151991844, 0.9920000471174717, 0.0, 0.0, 0.0, 0.0, 0.0, 1.6670453267865124E9, 0.0, 2022-10-29 14:08:46.786
86.0, 4206.833944957703, 5976.328340042848, 962.2856083489023, -3794.945673187729, 0.0, 0.03200000151991844, 0.9920000471174717, 0.0, 0.0, 0.0, 0.0, 0.0, 1.6670453268002748E9, 0.0, 2022-10-29 14:08:46.800
86.0, 4069.2953841872513, 5992.815688997507, 945.6393136461265, -3661.2461197217926, 0.0, 0.03200000151991844, 0.9920000471174717, 0.0, 0.0, 0.0, 0.0, 0.0, 1.6670453268002748E9, 0.0, 2022-10-29 14:08:46.800
87.0, 4071.5711133102886, 5931.189617527649, 1162.8844922222197, -3475.9135074676014, 0.0, 0.03200000151991844, 0.9920000471174717, 0.0, 0.0, 0.0, 0.0, 0.0, 1.6670453268157709E9, 0.0, 2022-10-29 14:08:46.815
87.0, 4022.662571639754, 5731.050741348881, 1198.8511100960895, -3465.6848810887896, 0.0, 0.03200000151991844, 0.9920000471174717, 0.0, 0.0, 0.0, 0.0, 0.0, 1.6670453268157709E9, 0.0, 2022-10-29 14:08:46.815
88.0, 4203.198762200773, 5972.468763288576, 1008.3649157029577, -3281.3302526730113, 0.0, 0.03200000151991844, 0.9920000471174717, 0.0, 0.0, 0.0, 0.0, 0.0, 1.6670453268164375E9, 0.0, 2022-10-29 14:08:46.816
88.0, 4054.440501563251, 5983.428540108725, 934.9618992726319, -3162.526720730588, 0.0, 0.03200000151991844, 0.9920000471174717, 0.0, 0.0, 0.0, 0.0, 0.0, 1.6670453268164375E9, 0.0, 2022-10-29 14:08:46.816
89.0, 4031.933783629909, 5909.07932898961, 1102.14477704186, -3029.171238060575, 0.0, 0.03200000151991844, 0.9920000471174717, 0.0, 0.0, 0.0, 0.0, 0.0, 1.6670453268301425E9, 0.0, 2022-10-29 14:08:46.830
89.0, 4060.398162192665, 5789.643753954675, 1262.1002981467173, -2927.404820366297, 0.0, 0.03200000151991844, 0.9920000471174717, 0.0, 0.0, 0.0, 0.0, 0.0, 1.6670453268301425E9, 0.0, 2022-10-29 14:08:46.830
90.0, 4209.175122329965, 5978.015034922864, 1496.9734951639548, -2787.3268675259314, 0.0, 0.03200000151991844, 0.9920000471174717, 0.0, 0.0, 0.0, 0.0, 0.0, 1.6670453268457816E9, 0.0, 2022-10-29 14:08:46.845
90.0, 4050.5023869099095, 5975.756135349628, 1408.7567350091413, -2692.092185104266, 0.0, 0.03200000151991844, 0.9920000471174717, 0.0, 0.0, 0.0, 0.0, 0.0, 1.6670453268457816E9, 0.0, 2022-10-29 14:08:46.845
91.0, 4041.3583315182477, 5905.214142385405, 1602.0740336687304, -2521.517218075227, 0.0, 0.03200000151991844, 0.9920000471174717, 0.0, 0.0, 0.0, 0.0, 0.0, 1.667045326846458E9, 0.0, 2022-10-29 14:08:46.846
91.0, 4119.245487995446, 5827.751464553177, 1789.3495239499025, -2408.4675222146325, 0.0, 0.03200000151991844, 0.9920000471174717, 0.0, 0.0, 0.0, 0.0, 0.0, 1.667045326846458E9, 0.0, 2022-10-29 14:08:46.846
92.0, 4175.444964629598, 5936.791987661272, 1995.941597502213, -2330.17645654222, 0.0, 0.03200000151991844, 0.9920000471174717, 0.0, 0.0, 0.0, 0.0, 0.0, 1.6670453268601472E9, 0.0, 2022-10-29 14:08:46.860
