%OpenBCI Raw EEG Data
%Number of channels = 4
%Sample Rate = 200 Hz
%Board = OpenBCI_GUI$BoardGanglionBLE
Sample Index, EXG Channel 0, EXG Channel 1, EXG Channel 2, EXG Channel 3, Accel Channel 0, Accel Channel 1, Accel Channel 2, Other, Other, Other, Other, Other, Timestamp, Other, Timestamp (Formatted)
102.0, -71.28062320547178, 378.68730991333723, -65.76801067078486, 43.56235468387604, 0.0, 0.0, 0.0, 0.0, 0.0, 0.0, 0.0, 0.0, 1.6670453598605435E9, 0.0, 2022-10-29 14:09:19.860
102.0, 412.09957611747086, 581.8929040557705, -351.3318116874434, 72.7578836879693, 0.0, 0.0, 0.0, 0.0, 0.0, 0.0, 0.0, 0.0, 1.6670453598605435E9, 0.0, 2022-10-29 14:09:19.860
103.0, 654.1440312997438, 561.5067093973048, -87.00129266921431, -350.8493645931594, 0.0, 0.0, 0.0, 0.0, 0.0, 0.0, 0.0, 0.0, 1.6670453598613365E9, 0.0, 2022-10-29 14:09:19.861
103.0, 1028.3472011662088, 76.02468629926443, 13.527218139730394, -699.1668169163167, 0.0, 0.0, 0.0, 0.0, 0.0, 0.0, 0.0, 0.0, 1.6670453598613365E9, 0.0, 2022-10-29 14:09:19.861
104.0, 1004.7764816954732, 503.4989911345765, -63.984078391920775, -519.943331239745, 0.0, 0.0, 0.0, 0.0, 0.0, 0.0, 0.0, 0.0, 1.6670453598737245E9, 0.0, 2022-10-29 14:09:19.873
104.0, 1408.4668927625753, 604.5267785876058, -379.4969982537441, -735.900114281103, 0.0, 0.0, 0.0, 0.0, 0.0, 0.0, 0.0, 0.0, 1.6670453598737245E9, 0.0, 2022-10-29 14:09:19.873
105.0, 1593.623729718849, 529.6240622750483, -153.76224677823484, -265.3963905056007, 0.0, 0.0, 0.0, 0.0, 0.0, 0.0, 0.0, 0.0, 1.667045359889335E9, 0.0, 2022-10-29 14:09:19.889
105.0, 2059.005660505034, 140.85211213119328, 40.495636720210314, -645.1701413560659, 0.0, 0.0, 0.0, 0.0, 0.0, 0.0, 0.0, 0.0, 1.667045359889335E9, 0.0, 2022-10-29 14:09:19.889
106.0, 2024.0955643686466, 571.5202915286645, -21.734428592491895, -537.6180984303355, 0.0, 0.0, 0.0, 0.0, 0.0, 0.0, 0.0, 0.0, 1.6670453598900676E9, 0.0, 2022-10-29 14:09:19.890
106.0, 2403.988992017694, 637.1798451007344, -379.14918755786493, -650.076890097931, 0.0, 0.0, 0.0, 0.0, 0.0, 0.0, 0.0, 0.0, 1.6670453598900676E9, 0.0, 2022-10-29 14:09:19.890
107.0, 2559.9334704200737, 517.3758899201639, -171.30985737033188, -208.32177728181705, 0.0, 0.0, 0.0, 0.0, 0.0, 0.0, 0.0, 0.0, 1.6670453599038064E9, 0.0, 2022-10-29 14:09:19.903
107.0, 2096.0119705665857, 192.45525171980262, 87.113489667885, -542.9250164674595, 0.0, 0.0, 0.0, 0.0, 0.0, 0.0, 0.0, 0.0, 1.6670453599038064E9, 0.0, 2022-10-29 14:09:19.903
108.0, 2045.4541330155917, 612.6591910412535, 1.2173374355770648, -436.0199762340635, 0.0, 0.0, 0.0, 0.0, 0.0, 0.0, 0.0, 0.0, 1.6670453599193785E9, 0.0, 2022-10-29 14:09:19.919
108.0, 2411.1097615333274, 653.4633695078082, -379.5605765529908, -586.7379444483668, 0.0, 0.0, 0.0, 0.0, 0.0, 0.0, 0.0, 0.0, 1.6670453599193785E9, 0.0, 2022-10-29 14:09:19.919
109.0, 2544.70833770046, 506.97896804334596, -205.37660606671125, -177.6246784455143, 0.0, 0.0, 0.0, 0.0, 0.0, 0.0, 0.0, 0.0, 1.6670453599201524E9, 0.0, 2022-10-29 14:09:19.920
109.0, 2117.8791656075045, 212.08598658721894, 99.7132126186043, -500.88854096550494, 0.0, 0.0, 0.0, 0.0, 0.0, 0.0, 0.0, 0.0, 1.6670453599201524E9, 0.0, 2022-10-29 14:09:19.920
110.0, 2069.3745331321843, 626.197628880851, 20.66107730520889, -423.65960688050836, 0.0, 0.0, 0.0, 0.0, 0.0, 0.0, 0.0, 0.0, 1.6670453599335797E9, 0.0, 2022-10-29 14:09:19.933
110.0, 2414.479411393404, 654.925670390483, -371.43003404932097, -587.1081945439801, 0.0, 0.0, 0.0, 0.0, 0.0, 0.0, 0.0, 0.0, 1.6670453599335797E9, 0.0, 2022-10-29 14:09:19.933
111.0, 2527.9012272995897, 498.403377444949, -223.361784953624, -186.67523633828387, 0.0, 0.0, 0.0, 0.0, 0.0, 0.0, 0.0, 0.0, 1.667045359949302E9, 0.0, 2022-10-29 14:09:19.949
111.0, 2110.5003429949284, 209.41569801885635, 95.40858776960522, -539.3833312094212, 0.0, 0.0, 0.0, 0.0, 0.0, 0.0, 0.0, 0.0, 1.667045359949302E9, 0.0, 2022-10-29 14:09:19.949
112.0, 2093.0817589513026, 643.7601990727708, 44.33090412477031, -429.66588620934635, 0.0, 0.0, 0.0, 0.0, 0.0, 0.0, 0.0, 0.0, 1.6670453599500976E9, 0.0, 2022-10-29 14:09:19.950
112.0, 2413.8211890012026, 658.097105552908, -376.02637109486386, -584.5127039747313, 0.0, 0.0, 0.0, 0.0, 0.0, 0.0, 0.0, 0.0, 1.6670453599500976E9, 0.0, 2022-10-29 14:09:19.950
113.0, 2505.3870295663364, 479.1989911724813, -241.83689073473215, -182.29955339012668, 0.0, 0.0, 0.0, 0.0, 0.0, 0.0, 0.0, 0.0, 1.6670453599636545E9, 0.0, 2022-10-29 14:09:19.963
113.0, 2157.578203637153, 246.59030357841402, 146.03935336973518, -501.7262785555795, 0.0, 0.0, 0.0, 0.0, 0.0, 0.0, 0.0, 0.0, 1.6670453599636545E9, 0.0, 2022-10-29 14:09:19.963
114.0, 2105.026999409776, 650.7126730903983, 53.74423231324181, -427.0816153399646, 0.0, 0.0, 0.0, 0.0, 0.0, 0.0, 0.0, 0.0, 1.6670453599792986E9, 0.0, 2022-10-29 14:09:19.979
114.0, 2422.703451395966, 662.7495410977863, -367.4844395960681, -569.7101799501106, 0.0, 0.0, 0.0, 0.0, 0.0, 0.0, 0.0, 0.0, 1.6670453599792986E9, 0.0, 2022-10-29 14:09:19.979
115.0, 2528.7240052898414, 490.78520123520866, -220.08563259243965, -173.22281619766727, 0.0, 0.0, 0.0, 0.0, 0.0, 0.0, 0.0, 0.0, 1.6670453599801404E9, 0.0, 2022-10-29 14:09:19.980
115.0, 2170.7314317813143, 243.59090381395072, 163.82631755899638, -506.51709039881825, 0.0, 0.0, 0.0, 0.0, 0.0, 0.0, 0.0, 0.0, 1.6670453599801404E9, 0.0, 2022-10-29 14:09:19.980
116.0, 2113.7035673069768, 658.9030539933592, 70.82435541087762, -432.0108034815639, 0.0, 0.0, 0.0, 0.0, 0.0, 0.0, 0.0, 0.0, 1.6670453599936647E9, 0.0, 2022-10-29 14:09:19.993
116.0, 2436.657018130645, 679.7847853959538, -355.4083026391454, -568.692927162163, 0.0, 0.0, 0.0, 0.0, 0.0, 0.0, 0.0, 0.0, 1.6670453599936647E9, 0.0, 2022-10-29 14:09:19.993
117.0, 2519.9801191934384, 495.9126040744595, -222.49038826394826, -172.38881850754842, 0.0, 0.0, 0.0, 0.0, 0.0, 0.0, 0.0, 0.0, 1.6670453600093522E9, 0.0, 2022-10-29 14:09:20.009
117.0, 2180.586068164557, 261.6134817004204, 178.53908398468047, -519.3673866465688, 0.0, 0.0, 0.0, 0.0, 0.0, 0.0, 0.0, 0.0, 1.6670453600093522E9, 0.0, 2022-10-29 14:09:20.009
118.0, 2105.113017108757, 650.3648623945192, 57.06526347389445, -470.1166441300884, 0.0, 0.0, 0.0, 0.0, 0.0, 0.0, 0.0, 0.0, 1.667045360010039E9, 0.0, 2022-10-29 14:09:20.010
118.0, 2421.3234283123165, 659.9894949304871, -370.4950590603985, -601.267455776222, 0.0, 0.0, 0.0, 0.0, 0.0, 0.0, 0.0, 0.0, 1.667045360010039E9, 0.0, 2022-10-29 14:09:20.010
119.0, 2524.3595420415513, 485.4371442985721, -235.68101540766656, -205.21766031859443, 0.0, 0.0, 0.0, 0.0, 0.0, 0.0, 0.0, 0.0, 1.667045360023683E9, 0.0, 2022-10-29 14:09:20.023
119.0, 2162.836502974853, 243.40016891621053, 157.31141183618456, -557.5816843938082, 0.0, 0.0, 0.0, 0.0, 0.0, 0.0, 0.0, 0.0, 1.667045360023683E9, 0.0, 2022-10-29 14:09:20.023
120.0, 2074.4346177722327, 628.8828770490363, 27.456475524697453, -506.47969139926136, 0.0, 0.0, 0.0, 0.0, 0.0, 0.0, 0.0, 0.0, 1.667045360039278E9, 0.0, 2022-10-29 14:09:20.039
120.0, 2401.864728842862, 636.9965900029056, -396.4275253531523, -621.9902414306998, 0.0, 0.0, 0.0, 0.0, 0.0, 0.0, 0.0, 0.0, 1.667045360039278E9, 0.0, 2022-10-29 14:09:20.039
121.0, 2518.671154208947, 470.40274647669867, -240.38954945188016, -201.7769523593597, 0.0, 0.0, 0.0, 0.0, 0.0, 0.0, 0.0, 0.0, 1.6670453600400844E9, 0.0, 2022-10-29 14:09:20.040
121.0, 2150.281658823602, 229.02773338649422, 171.58287006709725, -570.8246701369062, 0.0, 0.0, 0.0, 0.0, 0.0, 0.0, 0.0, 0.0, 1.6670453600400844E9, 0.0, 2022-10-29 14:09:20.040
122.0, 2041.6282153609209, 591.8503876877949, 8.65973834739998, -549.0846316944808, 0.0, 0.0, 0.0, 0.0, 0.0, 0.0, 0.0, 0.0, 1.6670453600536537E9, 0.0, 2022-10-29 14:09:20.053
122.0, 2387.6605888111517, 621.831295682583, -405.9081717408262, -652.3544891709462, 0.0, 0.0, 0.0, 0.0, 0.0, 0.0, 0.0, 0.0, 1.6670453600536537E9, 0.0, 2022-10-29 14:09:20.053
123.0, 2537.1761791897006, 489.16208465443924, -201.31133481487632, -182.75208128476515, 0.0, 0.0, 0.0, 0.0, 0.0, 0.0, 0.0, 0.0, 1.6670453600693462E9, 0.0, 2022-10-29 14:09:20.069
123.0, 2164.17538715899, 240.01555945631117, 176.31758341100067, -576.8795681651682, 0.0, 0.0, 0.0, 0.0, 0.0, 0.0, 0.0, 0.0, 1.6670453600693462E9, 0.0, 2022-10-29 14:09:20.069
124.0, 2021.5673919986002, 568.9023615596816, -22.523547483142465, -578.6765900938772, 0.0, 0.0, 0.0, 0.0, 0.0, 0.0, 0.0, 0.0, 1.6670453600700738E9, 0.0, 2022-10-29 14:09:20.070
124.0, 2396.05292431172, 631.0389293734916, -390.533443022985, -636.3869863101281, 0.0, 0.0, 0.0, 0.0, 0.0, 0.0, 0.0, 0.0, 1.6670453600700738E9, 0.0, 2022-10-29 14:09:20.070
125.0, 2589.792831666302, 540.6866863439791, -164.61917634960264, -1108.3174819187261, 0.0, 0.0, 0.0, 0.0, 0.0, 0.0, 0.0, 0.0, 1.6670453600836604E9, 0.0, 2022-10-29 14:09:20.083
125.0, 2151.355010110885, 224.26684074290097, 167.4502806160599, -1545.659512787126, 0.0, 0.0, 0.0, 0.0, 0.0, 0.0, 0.0, 0.0, 1.6670453600836604E9, 0.0, 2022-10-29 14:09:20.083
126.0, 2003.6570111108012, 557.0019999006763, -24.954482454340905, -1567.7641914752312, 0.0, 0.0, 0.0, 0.0, 0.0, 0.0, 0.0, 0.0, 1.6670453600993805E9, 0.0, 2022-10-29 14:09:20.099
126.0, 2394.448507230729, 639.5210224729963, -394.2135045793839, -1604.7630217368715, 0.0, 0.0, 0.0, 0.0, 0.0, 0.0, 0.0, 0.0, 1.6670453600993805E9, 0.0, 2022-10-29 14:09:20.099
127.0, 2623.3733933684416, 599.9379213419743, -152.15782969724387, -2000.089146553073, 0.0, 0.0, 0.0, 0.0, 0.0, 0.0, 0.0, 0.0, 1.667045360100139E9, 0.0, 2022-10-29 14:09:20.100
127.0, 2163.0608969721943, 244.23790650628507, 177.7537049939856, -1530.1220984212123, 0.0, 0.0, 0.0, 0.0, 0.0, 0.0, 0.0, 0.0, 1.667045360100139E9, 0.0, 2022-10-29 14:09:20.100
128.0, 1968.1728403312154, 513.3012689184397, -68.04186984384432, -1593.2796589229256, 0.0, 0.0, 0.0, 0.0, 0.0, 0.0, 0.0, 0.0, 1.6670453601136813E9, 0.0, 2022-10-29 14:09:20.113
128.0, 2398.9401270775124, 644.6521652122028, -404.4645703579299, -1578.4603053485043, 0.0, 0.0, 0.0, 0.0, 0.0, 0.0, 0.0, 0.0, 1.6670453601136813E9, 0.0, 2022-10-29 14:09:20.113
129.0, 2679.5167715032585, 667.1196141960099, -110.1998920943588, -1919.70747680543, 0.0, 0.0, 0.0, 0.0, 0.0, 0.0, 0.0, 0.0, 1.6670453601292892E9, 0.0, 2022-10-29 14:09:20.129
129.0, 3144.2367399972863, 247.45983031811193, 184.54536331351846, -1526.7748879608698, 0.0, 0.0, 0.0, 0.0, 0.0, 0.0, 0.0, 0.0, 1.6670453601292892E9, 0.0, 2022-10-29 14:09:20.129
130.0, 2906.650245562196, 470.7655167724006, -99.29995367350057, -1655.2610208885744, 0.0, 0.0, 0.0, 0.0, 0.0, 0.0, 0.0, 0.0, 1.6670453601300135E9, 0.0, 2022-10-29 14:09:20.130
130.0, 3378.6686288197525, 643.0608377810568, -403.22666347259656, -1581.5793819115497, 0.0, 0.0, 0.0, 0.0, 0.0, 0.0, 0.0, 0.0, 1.6670453601300135E9, 0.0, 2022-10-29 14:09:20.130
131.0, 3722.4308829968795, 728.7550354157574, -69.30782597884536, -1829.818981370423, 0.0, 0.0, 0.0, 0.0, 0.0, 0.0, 0.0, 0.0, 1.6670453601435935E9, 0.0, 2022-10-29 14:09:20.143
131.0, 4153.66378728766, 267.0924351355061, 221.96306237019598, -1523.0910865045153, 0.0, 0.0, 0.0, 0.0, 0.0, 0.0, 0.0, 0.0, 1.6670453601435935E9, 0.0, 2022-10-29 14:09:20.143
132.0, 3858.6885280325077, 437.81512821279466, -105.9943745941855, -1730.9640757916495, 0.0, 0.0, 0.0, 0.0, 0.0, 0.0, 0.0, 0.0, 1.667045360159402E9, 0.0, 2022-10-29 14:09:20.159
132.0, 3391.5862432667054, 663.9051701840945, -383.079822411295, -1571.1974196345545, 0.0, 0.0, 0.0, 0.0, 0.0, 0.0, 0.0, 0.0, 1.667045360159402E9, 0.0, 2022-10-29 14:09:20.159
133.0, 3750.682087262161, 772.6147121461108, -59.64766439329833, -1806.7138794441707, 0.0, 0.0, 0.0, 0.0, 0.0, 0.0, 0.0, 0.0, 1.6670453601601138E9, 0.0, 2022-10-29 14:09:20.160
133.0, 4142.545064719394, 1225.2024451838806, 224.76050753705204, -1597.1897243265994, 0.0, 0.0, 0.0, 0.0, 0.0, 0.0, 0.0, 0.0, 1.6670453601601138E9, 0.0, 2022-10-29 14:09:20.160
134.0, 3841.174576540012, 1395.132279470563, -92.83740655006841, -1943.476410973817, 0.0, 0.0, 0.0, 0.0, 0.0, 0.0, 0.0, 0.0, 1.6670453601736932E9, 0.0, 2022-10-29 14:09:20.173
134.0, 3370.8297985126264, 1608.6113787912764, -365.66310831764713, -1961.7458222573623, 0.0, 0.0, 0.0, 0.0, 0.0, 0.0, 0.0, 0.0, 1.6670453601736932E9, 0.0, 2022-10-29 14:09:20.173
135.0, 3782.669451583177, 1792.4929098626599, -28.367141163907945, -1791.9824135187082, 0.0, 0.0, 0.0, 0.0, 0.0, 0.0, 0.0, 0.0, 1.6670453601894207E9, 0.0, 2022-10-29 14:09:20.189
135.0, 4141.1987007353455, 2199.5922397393733, 228.0703189978376, -1549.0796512966044, 0.0, 0.0, 0.0, 0.0, 0.0, 0.0, 0.0, 0.0, 1.6670453601894207E9, 0.0, 2022-10-29 14:09:20.189
136.0, 3861.497192899231, 2376.007060549222, -57.917960663791746, -1728.2713478235528, 0.0, 0.0, 0.0, 0.0, 0.0, 0.0, 0.0, 0.0, 1.6670453601900947E9, 0.0, 2022-10-29 14:09:20.190
136.0, 3430.066073910799, 2664.471153981518, -348.5605458202772, -1493.762791051995, 0.0, 0.0, 0.0, 0.0, 0.0, 0.0, 0.0, 0.0, 1.6670453601900947E9, 0.0, 2022-10-29 14:09:20.190
137.0, 3764.5496362978593, 2765.708375832066, -53.09161977097392, -1870.0378654939122, 0.0, 0.0, 0.0, 0.0, 0.0, 0.0, 0.0, 0.0, 1.66704536020364E9, 0.0, 2022-10-29 14:09:20.203
137.0, 4142.8143375162035, 3165.6644967934117, 242.1136433314532, -1629.1209901482798, 0.0, 0.0, 0.0, 0.0, 0.0, 0.0, 0.0, 0.0, 1.66704536020364E9, 0.0, 2022-10-29 14:09:20.203
138.0, 3827.0302749075927, 3321.292953649536, -79.25782981095836, -1821.3798971204087, 0.0, 0.0, 0.0, 0.0, 0.0, 0.0, 0.0, 0.0, 1.6670453602193403E9, 0.0, 2022-10-29 14:09:20.219
138.0, 3411.9649581252597, 3628.086296764668, -370.46887976070866, -1469.0682316445746, 0.0, 0.0, 0.0, 0.0, 0.0, 0.0, 0.0, 0.0, 1.6670453602193403E9, 0.0, 2022-10-29 14:09:20.219
139.0, 3786.405611638911, 3784.621679360047, -83.17163511458784, -1540.0066540041007, 0.0, 0.0, 0.0, 0.0, 0.0, 0.0, 0.0, 0.0, 1.6670453602202E9, 0.0, 2022-10-29 14:09:20.220
139.0, 4136.243333294056, 4147.163841164671, 222.28095386642963, -1502.1588664525189, 0.0, 0.0, 0.0, 0.0, 0.0, 0.0, 0.0, 0.0, 1.6670453602202E9, 0.0, 2022-10-29 14:09:20.220
140.0, 3819.8833260922693, 4288.416122591123, -85.66801833501086, -1817.6699163643643, 0.0, 0.0, 0.0, 0.0, 0.0, 0.0, 0.0, 0.0, 1.6670453602337136E9, 0.0, 2022-10-29 14:09:20.233
140.0, 3398.198386388365, 4596.593228689861, -397.2727427431382, -1460.2570273489691, 0.0, 0.0, 0.0, 0.0, 0.0, 0.0, 0.0, 0.0, 1.6670453602337136E9, 0.0, 2022-10-29 14:09:20.233
141.0, 3760.4469660464674, 4761.3189921882, -143.1371910041198, -1487.1880469298922, 0.0, 0.0, 0.0, 0.0, 0.0, 0.0, 0.0, 0.0, 1.6670453602493105E9, 0.0, 2022-10-29 14:09:20.249
141.0, 4138.019785773009, 5137.743662628345, 213.90357796568424, -1500.9078699173406, 0.0, 0.0, 0.0, 0.0, 0.0, 0.0, 0.0, 0.0, 1.6670453602493105E9, 0.0, 2022-10-29 14:09:20.249
142.0, 3812.418485780712, 5248.758852913044, -90.5037089777179, -1823.1694392492063, 0.0, 0.0, 0.0, 0.0, 0.0, 0.0, 0.0, 0.0, 1.6670453602500656E9, 0.0, 2022-10-29 14:09:20.250
142.0, 3389.611576090101, 5569.23275006609, -405.1676715495996, -1470.7792358743027, 0.0, 0.0, 0.0, 0.0, 0.0, 0.0, 0.0, 0.0, 1.6670453602500656E9, 0.0, 2022-10-29 14:09:20.250
143.0, 3747.0207252055407, 5732.346616683528, -163.47850686311722, -1512.1724485838786, 0.0, 0.0, 0.0, 0.0, 0.0, 0.0, 0.0, 0.0, 1.6670453602636917E9, 0.0, 2022-10-29 14:09:20.263
143.0, 4115.5093279397115, 6077.012056699954, 195.60050758253783, -1573.5348571068607, 0.0, 0.0, 0.0, 0.0, 0.0, 0.0, 0.0, 0.0, 1.6670453602636917E9, 0.0, 2022-10-29 14:09:20.263
144.0, 3794.9755923873745, 6192.48146783188, -103.25676782662049, -1895.572032441385, 0.0, 0.0, 0.0, 0.0, 0.0, 0.0, 0.0, 0.0, 1.6670453602793028E9, 0.0, 2022-10-29 14:09:20.279
144.0, 3365.9716684701853, 6528.640505399089, -441.17168842302635, -1504.5262231244706, 0.0, 0.0, 0.0, 0.0, 0.0, 0.0, 0.0, 0.0, 1.6670453602793028E9, 0.0, 2022-10-29 14:09:20.279
145.0, 3707.2618487766013, 6694.503198483959, -233.17154253739864, -1525.6080391746946, 0.0, 0.0, 0.0, 0.0, 0.0, 0.0, 0.0, 0.0, 1.6670453602800899E9, 0.0, 2022-10-29 14:09:20.280
145.0, 4091.637546522543, 7020.727191818878, 176.8636088045314, -1647.680243678391, 0.0, 0.0, 0.0, 0.0, 0.0, 0.0, 0.0, 0.0, 1.6670453602800899E9, 0.0, 2022-10-29 14:09:20.280
146.0, 3765.6921757343225, 7136.821166243404, -114.78687939001247, -1995.7097237049602, 0.0, 0.0, 0.0, 0.0, 0.0, 0.0, 0.0, 0.0, 1.6670453602937021E9, 0.0, 2022-10-29 14:09:20.293
146.0, 3353.7047966155224, 7488.927137221675, -450.2222463157959, -1586.25612680614, 0.0, 0.0, 0.0, 0.0, 0.0, 0.0, 0.0, 0.0, 1.6670453602937021E9, 0.0, 2022-10-29 14:09:20.293
147.0, 3697.930798387155, 7632.118556775153, -235.69597500748932, -1637.1000667037442, 0.0, 0.0, 0.0, 0.0, 0.0, 0.0, 0.0, 0.0, 1.6670453603092601E9, 0.0, 2022-10-29 14:09:20.309
147.0, 4091.6300667226315, 7969.345335779712, 211.6184990927577, -1783.7134947166778, 0.0, 0.0, 0.0, 0.0, 0.0, 0.0, 0.0, 0.0, 1.6670453603092601E9, 0.0, 2022-10-29 14:09:20.309
148.0, 3771.814391961787, 8093.371638010256, -90.51118877762929, -2151.1904545128345, 0.0, 0.0, 0.0, 0.0, 0.0, 0.0, 0.0, 0.0, 1.667045360310105E9, 0.0, 2022-10-29 14:09:20.310
148.0, 3337.2305373107083, 8425.054015330505, -443.54278499493375, -1749.725283919368, 0.0, 0.0, 0.0, 0.0, 0.0, 0.0, 0.0, 0.0, 1.667045360310105E9, 0.0, 2022-10-29 14:09:20.310
149.0, 3651.436362138018, 8541.78190279752, -225.46360872872174, -1814.1562803559937, 0.0, 0.0, 0.0, 0.0, 0.0, 0.0, 0.0, 0.0, 1.6670453603236003E9, 0.0, 2022-10-29 14:09:20.323
149.0, 4116.937969722785, 8957.29226767458, 254.14116158895195, -1997.1813743375242, 0.0, 0.0, 0.0, 0.0, 0.0, 0.0, 0.0, 0.0, 1.6670453603236003E9, 0.0, 2022-10-29 14:09:20.323
150.0, 3777.7309136916883, 9085.484818455763, -97.71797599224374, -2361.412100972142, 0.0, 0.0, 0.0, 0.0, 0.0, 0.0, 0.0, 0.0, 1.667045360339367E9, 0.0, 2022-10-29 14:09:20.339
150.0, 3336.7219109167345, 9411.84157823911, -406.48785623395815, -2849.9477523840033, 0.0, 0.0, 0.0, 0.0, 0.0, 0.0, 0.0, 0.0, 1.667045360339367E9, 0.0, 2022-10-29 14:09:20.339
151.0, 3598.5466969646513, 9439.436430062167, -182.2752440404147, -3138.9073825604282, 0.0, 0.0, 0.0, 0.0, 0.0, 0.0, 0.0, 0.0, 1.6670453603401551E9, 0.0, 2022-10-29 14:09:20.340
151.0, 3168.048683015164, 8988.7728755516, -642.490503037814, -3087.8390486654826, 0.0, 0.0, 0.0, 0.0, 0.0, 0.0, 0.0, 0.0, 1.6670453603401551E9, 0.0, 2022-10-29 14:09:20.340
152.0, 2869.0866904072464, 9178.333444705699, -945.1699562016875, -3330.8745773360133, 0.0, 0.0, 0.0, 0.0, 0.0, 0.0, 0.0, 0.0, 1.667045360353828E9, 0.0, 2022-10-29 14:09:20.353
152.0, 3345.0693676178344, 9395.54496418219, -1331.0079548303038, -3211.453961900901, 0.0, 0.0, 0.0, 0.0, 0.0, 0.0, 0.0, 0.0, 1.667045360353828E9, 0.0, 2022-10-29 14:09:20.353
153.0, 3566.7388478415087, 9389.587303552777, -1144.295319492463, -3452.0230265506543, 0.0, 0.0, 0.0, 0.0, 0.0, 0.0, 0.0, 0.0, 1.6670453603693144E9, 0.0, 2022-10-29 14:09:20.369
153.0, 3225.3663897360675, 9075.201963527594, -1499.782160030678, -3120.1480443826877, 0.0, 0.0, 0.0, 0.0, 0.0, 0.0, 0.0, 0.0, 1.6670453603693144E9, 0.0, 2022-10-29 14:09:20.369
154.0, 2956.4170942725614, 9291.487857765052, -1827.720897495281, -3308.988682795316, 0.0, 0.0, 0.0, 0.0, 0.0, 0.0, 0.0, 0.0, 1.6670453603700602E9, 0.0, 2022-10-29 14:09:20.370
154.0, 3349.7105834628455, 9405.687572862022, -2268.3933092742227, -3286.401557012927, 0.0, 0.0, 0.0, 0.0, 0.0, 0.0, 0.0, 0.0, 1.6670453603700602E9, 0.0, 2022-10-29 14:09:20.370
155.0, 3477.774107695557, 9240.974899013527, -2174.834102032706, -3749.561987225432, 0.0, 0.0, 0.0, 0.0, 0.0, 0.0, 0.0, 0.0, 1.6670453603836627E9, 0.0, 2022-10-29 14:09:20.383
155.0, 3211.0126537061296, 9069.76414899202, -2520.3802884886973, -4044.8326985770836, 0.0, 0.0, 0.0, 0.0, 0.0, 0.0, 0.0, 0.0, 1.6670453603836627E9, 0.0, 2022-10-29 14:09:20.383
156.0, 2938.016786490567, 9317.611058955546, -2979.2940623015165, -3930.735830728896, 0.0, 0.0, 0.0, 0.0, 0.0, 0.0, 0.0, 0.0, 1.6670453604157372E9, 0.0, 2022-10-29 14:09:20.415
156.0, 3311.3242503176443, 9380.506826460361, -3312.5154084535316, -3994.523564373143, 0.0, 0.0, 0.0, 0.0, 0.0, 0.0, 0.0, 0.0, 1.6670453604157372E9, 0.0, 2022-10-29 14:09:20.415
157.0, 3412.7297676661983, 9173.39490681421, -3263.124419688713, -3576.034369181376, 0.0, 0.0, 0.0, 0.0, 0.0, 0.0, 0.0, 0.0, 1.667045360416495E9, 0.0, 2022-10-29 14:09:20.416
157.0, 3245.524450497236, 9131.412659861613, -3512.8768086796626, -3642.763534140773, 0.0, 0.0, 0.0, 0.0, 0.0, 0.0, 0.0, 0.0, 1.667045360416495E9, 0.0, 2022-10-29 14:09:20.416
158.0, 2965.8117229612544, 9371.30106271943, -3977.0788010298274, -3614.7479435727, 0.0, 0.0, 0.0, 0.0, 0.0, 0.0, 0.0, 0.0, 1.6670453604172285E9, 0.0, 2022-10-29 14:09:20.417
158.0, 3321.713692394551, 9407.392967241816, -4376.9227249925025, -3666.137908863835, 0.0, 0.0, 0.0, 0.0, 0.0, 0.0, 0.0, 0.0, 1.6670453604172285E9, 0.0, 2022-10-29 14:09:20.417
159.0, 3418.8893828932196, 9191.09585330449, -4204.148696789518, -3356.26662808517, 0.0, 0.0, 0.0, 0.0, 0.0, 0.0, 0.0, 0.0, 1.6670453604179027E9, 0.0, 2022-10-29 14:09:20.417
159.0, 3282.6392176575027, 9182.163102260325, -4548.015668165404, -3367.383480703458, 0.0, 0.0, 0.0, 0.0, 0.0, 0.0, 0.0, 0.0, 1.6670453604179027E9, 0.0, 2022-10-29 14:09:20.417
160.0, 2997.1221653902903, 9423.162255404983, -5024.8286031661555, -3343.65007558465, 0.0, 0.0, 0.0, 0.0, 0.0, 0.0, 0.0, 0.0, 1.6670453604285982E9, 0.0, 2022-10-29 14:09:20.428
160.0, 3342.4888366484083, 9422.111343517434, -5381.644978138618, -3569.1548232128844, 0.0, 0.0, 0.0, 0.0, 0.0, 0.0, 0.0, 0.0, 1.6670453604285982E9, 0.0, 2022-10-29 14:09:20.428
161.0, 3415.519733033143, 9177.002040321473, -5170.3275409922935, -3291.925389247481, 0.0, 0.0, 0.0, 0.0, 0.0, 0.0, 0.0, 0.0, 1.6670453604436328E9, 0.0, 2022-10-29 14:09:20.443
161.0, 3297.725974078756, 9203.835822503548, -5550.602438436821, -3282.9197101541795, 0.0, 0.0, 0.0, 0.0, 0.0, 0.0, 0.0, 0.0, 1.6670453604436328E9, 0.0, 2022-10-29 14:09:20.443
162.0, 3004.471068803221, 9436.977445841301, -5078.806579226628, -3283.864034892991, 0.0, 0.0, 0.0, 0.0, 0.0, 0.0, 0.0, 0.0, 1.6670453604592743E9, 0.0, 2022-10-29 14:09:20.459
162.0, 3323.942672768142, 9400.318946475629, -5363.68223865144, -3562.632437690161, 0.0, 0.0, 0.0, 0.0, 0.0, 0.0, 0.0, 0.0, 1.6670453604592743E9, 0.0, 2022-10-29 14:09:20.459
163.0, 3422.490906550549, 9184.429481633473, -5047.329711249564, -3323.692099471111, 0.0, 0.0, 0.0, 0.0, 0.0, 0.0, 0.0, 0.0, 1.6670453604601119E9, 0.0, 2022-10-29 14:09:20.460
163.0, 3306.28660507733, 9212.785403097514, -4582.018838562537, -3272.698563575279, 0.0, 0.0, 0.0, 0.0, 0.0, 0.0, 0.0, 0.0, 1.6670453604601119E9, 0.0, 2022-10-29 14:09:20.460
164.0, 2966.24929125607, 9401.212782565039, -4162.8471116288565, -3304.414785149507, 0.0, 0.0, 0.0, 0.0, 0.0, 0.0, 0.0, 0.0, 1.667045360473629E9, 0.0, 2022-10-29 14:09:20.473
164.0, 3308.1528151552193, 9394.552020743955, -4384.731636099983, -3593.991498818621, 0.0, 0.0, 0.0, 0.0, 0.0, 0.0, 0.0, 0.0, 1.667045360473629E9, 0.0, 2022-10-29 14:09:20.473
165.0, 3425.288351717405, 9191.78212494636, -4013.2492434512824, -3355.3765318957157, 0.0, 0.0, 0.0, 0.0, 0.0, 0.0, 0.0, 0.0, 1.6670453604893408E9, 0.0, 2022-10-29 14:09:20.489
165.0, 3306.346443476621, 9216.33830805542, -3583.7815719395876, -3272.021641683299, 0.0, 0.0, 0.0, 0.0, 0.0, 0.0, 0.0, 0.0, 1.6670453604893408E9, 0.0, 2022-10-29 14:09:20.489
166.0, 2949.8685294501483, 9393.501108856406, -3172.51225361228, -3304.9196716435254, 0.0, 0.0, 0.0, 0.0, 0.0, 0.0, 0.0, 0.0, 1.6670453604900875E9, 0.0, 2022-10-29 14:09:20.490
166.0, 3312.498578903731, 9395.234552485868, -3379.396039361134, -3580.000533084385, 0.0, 0.0, 0.0, 0.0, 0.0, 0.0, 0.0, 0.0, 1.6670453604900875E9, 0.0, 2022-10-29 14:09:20.490
167.0, 3446.9461123608053, 9216.429935604334, -3003.190153068397, -3321.7062125946395, 0.0, 0.0, 0.0, 0.0, 0.0, 0.0, 0.0, 0.0, 1.6670453605038404E9, 0.0, 2022-10-29 14:09:20.503
167.0, 3315.105289172847, 9230.836030233651, -2603.9932317980565, -3237.2854508948512, 0.0, 0.0, 0.0, 0.0, 0.0, 0.0, 0.0, 0.0, 1.6670453605038404E9, 0.0, 2022-10-29 14:09:20.503
168.0, 2955.5494374828413, 9401.45400611218, -2204.3063836335205, -3266.1705682026222, 0.0, 0.0, 0.0, 0.0, 0.0, 0.0, 0.0, 0.0, 1.6670453605193994E9, 0.0, 2022-10-29 14:09:20.519
168.0, 3317.117355349008, 9405.96619540872, -2399.2037900243886, -3554.299940588884, 0.0, 0.0, 0.0, 0.0, 0.0, 0.0, 0.0, 0.0, 1.6670453605193994E9, 0.0, 2022-10-29 14:09:20.519
169.0, 3478.308913389221, 9239.60048577981, -1987.0499853575602, -3282.889790954534, 0.0, 0.0, 0.0, 0.0, 0.0, 0.0, 0.0, 0.0, 1.6670453605200632E9, 0.0, 2022-10-29 14:09:20.520
169.0, 3322.2260586884804, 9241.010428063106, -1603.018358407542, -3211.8616109960712, 0.0, 0.0, 0.0, 0.0, 0.0, 0.0, 0.0, 0.0, 1.6670453605200632E9, 0.0, 2022-10-29 14:09:20.520
170.0, 2937.874670292251, 9391.040254685562, -1222.2254848191515, -3278.437440057285, 0.0, 0.0, 0.0, 0.0, 0.0, 0.0, 0.0, 0.0, 1.6670453605500474E9, 0.0, 2022-10-29 14:09:20.550
170.0, 3318.927466927562, 9408.82160902489, -1407.7432221211493, -3555.2835342772305, 0.0, 0.0, 0.0, 0.0, 0.0, 0.0, 0.0, 0.0, 1.6670453605500474E9, 0.0, 2022-10-29 14:09:20.550
171.0, 3516.066943341866, 9277.150951284915, -981.3441385230981, -3265.364619762171, 0.0, 0.0, 0.0, 0.0, 0.0, 0.0, 0.0, 0.0, 1.6670453605507216E9, 0.0, 2022-10-29 14:09:20.550
171.0, 3330.9213260854594, 9251.702802036423, -616.7599913426675, -3220.642896092031, 0.0, 0.0, 0.0, 0.0, 0.0, 0.0, 0.0, 0.0, 1.6670453605507216E9, 0.0, 2022-10-29 14:09:20.550
172.0, 2903.718163996935, 9356.988465589006, -291.28397799888626, -3326.2034422913566, 0.0, 0.0, 0.0, 0.0, 0.0, 0.0, 0.0, 0.0, 1.667045360551455E9, 0.0, 2022-10-29 14:09:20.551
172.0, 3309.0279517448507, 9406.446772553027, -436.17144218226895, -3590.2216796632856, 0.0, 0.0, 0.0, 0.0, 0.0, 0.0, 0.0, 0.0, 1.667045360551455E9, 0.0, 2022-10-29 14:09:20.551
173.0, 3555.8482591705397, 9313.970266348682, 32.22297801822424, -3272.904258072842, 0.0, 0.0, 0.0, 0.0, 0.0, 0.0, 0.0, 0.0, 1.667045360563746E9, 0.0, 2022-10-29 14:09:20.563
173.0, 3335.8505142270587, 9252.922009421978, 367.6284257443622, -3239.750044965651, 0.0, 0.0, 0.0, 0.0, 0.0, 0.0, 0.0, 0.0, 1.667045360563746E9, 0.0, 2022-10-29 14:09:20.563
174.0, 2877.920334102586, 9328.378230927978, 658.6599604962394, -3369.0290366839617, 0.0, 0.0, 0.0, 0.0, 0.0, 0.0, 0.0, 0.0, 1.6670453605793269E9, 0.0, 2022-10-29 14:09:20.579
174.0, 3316.634908254724, 9406.510350852273, 534.5775597663596, -3593.9727993188426, 0.0, 0.0, 0.0, 0.0, 0.0, 0.0, 0.0, 0.0, 1.6670453605793269E9, 0.0, 2022-10-29 14:09:20.579
175.0, 3608.779063243419, 9361.164063889533, 72.9991072351113, -3234.0653970330022, 0.0, 0.0, 0.0, 0.0, 0.0, 0.0, 0.0, 0.0, 1.6670453605800686E9, 0.0, 2022-10-29 14:09:20.580
175.0, 3342.1597254523076, 9264.111790089402, 378.3955977167934, -3228.807097695302, 0.0, 0.0, 0.0, 0.0, 0.0, 0.0, 0.0, 0.0, 1.6670453605800686E9, 0.0, 2022-10-29 14:09:20.580
176.0, 3824.5582010368817, 9302.554221733939, 629.1558897458017, -3390.181910833344, 0.0, 0.0, 0.0, 0.0, 0.0, 0.0, 0.0, 0.0, 1.66704536059367E9, 0.0, 2022-10-29 14:09:20.593
176.0, 4287.36895060353, 9394.531451294199, 531.4510034034029, -3611.972937805578, 0.0, 0.0, 0.0, 0.0, 0.0, 0.0, 0.0, 0.0, 1.66704536059367E9, 0.0, 2022-10-29 14:09:20.593
177.0, 4624.9117511543445, 9403.168750241864, 117.48147730808705, -3194.063427106943, 0.0, 0.0, 0.0, 0.0, 0.0, 0.0, 0.0, 0.0, 1.6670453606094875E9, 0.0, 2022-10-29 14:09:20.609
177.0, 4314.142894386314, 9257.651112915948, 381.86622487567365, -3248.5107606118545, 0.0, 0.0, 0.0, 0.0, 0.0, 0.0, 0.0, 0.0, 1.6670453606094875E9, 0.0, 2022-10-29 14:09:20.609
178.0, 4773.440007944591, 9269.809527671896, 598.2755358116701, -3431.1656044977717, 0.0, 0.0, 0.0, 0.0, 0.0, 0.0, 0.0, 0.0, 1.6670453606101027E9, 0.0, 2022-10-29 14:09:20.610
178.0, 4289.762486575171, 9398.83420619322, 535.6995297530666, -3619.6939612641, 0.0, 0.0, 0.0, 0.0, 0.0, 0.0, 0.0, 0.0, 1.6670453606101027E9, 0.0, 2022-10-29 14:09:20.610
179.0, 4680.187472499441, 9448.322432356887, 164.43592125177383, -3173.1704760044813, 0.0, 0.0, 0.0, 0.0, 0.0, 0.0, 0.0, 0.0, 1.667045360623623E9, 0.0, 2022-10-29 14:09:20.623
179.0, 4328.047842421569, 9264.09683048958, 381.75028797704726, -3230.3142773774453, 0.0, 0.0, 0.0, 0.0, 0.0, 0.0, 0.0, 0.0, 1.667045360623623E9, 0.0, 2022-10-29 14:09:20.623
180.0, 4744.044394292869, 9251.005310694687, 555.4424616191536, -3445.4688518783078, 0.0, 0.0, 0.0, 0.0, 0.0, 0.0, 0.0, 0.0, 1.6670453606393564E9, 0.0, 2022-10-29 14:09:20.639
180.0, 4295.551851706579, 9400.375044974964, 536.8439391395077, -3622.4035187819973, 0.0, 0.0, 0.0, 0.0, 0.0, 0.0, 0.0, 0.0, 1.6670453606393564E9, 0.0, 2022-10-29 14:09:20.639
181.0, 4710.432043441106, 9464.071151070297, 207.0259019471705, -3168.3329154117964, 0.0, 0.0, 0.0, 0.0, 0.0, 0.0, 0.0, 0.0, 1.6670453606402285E9, 0.0, 2022-10-29 14:09:20.640
181.0, 4334.431851645932, 9263.034698902164, 389.57789858430624, -3240.1782635105774, 0.0, 0.0, 0.0, 0.0, 0.0, 0.0, 0.0, 0.0, 1.6670453606402285E9, 0.0, 2022-10-29 14:09:20.640
182.0, 4718.224124998786, 9225.450574297458, 521.5926271202043, -3476.4408333613537, 0.0, 0.0, 0.0, 0.0, 0.0, 0.0, 0.0, 0.0, 1.6670453606536164E9, 0.0, 2022-10-29 14:09:20.653
182.0, 4281.280393475667, 9385.09755365597, 518.0397221622989, -3653.6223336621188, 0.0, 0.0, 0.0, 0.0, 0.0, 0.0, 0.0, 0.0, 1.6670453606536164E9, 0.0, 2022-10-29 14:09:20.653
183.0, 4748.530404289719, 9512.413097897545, 242.53251212649047, -4125.593968170229, 0.0, 0.0, 0.0, 0.0, 0.0, 0.0, 0.0, 0.0, 1.66704536066937E9, 0.0, 2022-10-29 14:09:20.669
183.0, 4337.285395312123, 9265.087903977837, 397.6299031889066, -4217.070051136427, 0.0, 0.0, 0.0, 0.0, 0.0, 0.0, 0.0, 0.0, 1.66704536066937E9, 0.0, 2022-10-29 14:09:20.669
184.0, 4694.595437078737, 9203.957369252108, 499.92364677693695, -4459.813867610414, 0.0, 0.0, 0.0, 0.0, 0.0, 0.0, 0.0, 0.0, 1.6670453606700222E9, 0.0, 2022-10-29 14:09:20.670
184.0, 4288.064571995288, 9396.848319316749, 530.3832619660534, -4607.891466456, 0.0, 0.0, 0.0, 0.0, 0.0, 0.0, 0.0, 0.0, 1.6670453606700222E9, 0.0, 2022-10-29 14:09:20.670
185.0, 4767.188765168656, 9521.463655790314, 255.6988299204968, -5046.589211058337, 0.0, 0.0, 0.0, 0.0, 0.0, 0.0, 0.0, 0.0, 1.6670453606837237E9, 0.0, 2022-10-29 14:09:20.683
185.0, 4351.568073242903, 9290.885733872186, 410.7962209829129, -5075.904416861013, 0.0, 0.0, 0.0, 0.0, 0.0, 0.0, 0.0, 0.0, 1.6670453606837237E9, 0.0, 2022-10-29 14:09:20.683
186.0, 4681.4758680341765, 9201.889204576612, 464.0823155515827, -5345.235182119999, 0.0, 0.0, 0.0, 0.0, 0.0, 0.0, 0.0, 0.0, 1.6670453606993616E9, 0.0, 2022-10-29 14:09:20.699
186.0, 4286.224541217089, 9401.646610959899, 524.5882869847119, -5585.6696103713475, 0.0, 0.0, 0.0, 0.0, 0.0, 0.0, 0.0, 0.0, 1.6670453606993616E9, 0.0, 2022-10-29 14:09:20.699
187.0, 3820.5658578341827, 9566.555629556067, 289.11670597456396, -6004.302791711409, 0.0, 0.0, 0.0, 0.0, 0.0, 0.0, 0.0, 0.0, 1.6670453607001047E9, 0.0, 2022-10-29 14:09:20.700
187.0, 3370.7699601133354, 9285.272144038696, 421.62136140465736, -6165.1203597560525, 0.0, 0.0, 0.0, 0.0, 0.0, 0.0, 0.0, 0.0, 1.6670453607001047E9, 0.0, 2022-10-29 14:09:20.700
188.0, 3667.9311908925883, 9168.323602474295, 445.75119591876864, -6478.080797898117, 0.0, 0.0, 0.0, 0.0, 0.0, 0.0, 0.0, 0.0, 1.6670453607136283E9, 0.0, 2022-10-29 14:09:20.713
188.0, 3307.5095523628406, 9392.270681770984, 524.3844624371268, -6593.621267129201, 0.0, 0.0, 0.0, 0.0, 0.0, 0.0, 0.0, 0.0, 1.6670453607136283E9, 0.0, 2022-10-29 14:09:20.713
189.0, 2864.4323849123903, 9578.470950814895, 330.724962931592, -6996.285075658467, 0.0, 0.0, 0.0, 0.0, 0.0, 0.0, 0.0, 0.0, 1.667045360729398E9, 0.0, 2022-10-29 14:09:20.729
189.0, 3352.612745828461, 9261.654675818514, 413.3318731528707, -7192.676572081633, 0.0, 0.0, 0.0, 0.0, 0.0, 0.0, 0.0, 0.0, 1.667045360729398E9, 0.0, 2022-10-29 14:09:20.729
190.0, 3653.9963236576878, 9147.503579420969, 450.44290041318163, -7504.88903023256, 0.0, 0.0, 0.0, 0.0, 0.0, 0.0, 0.0, 0.0, 1.667045360730159E9, 0.0, 2022-10-29 14:09:20.730
190.0, 3317.88777473988, 9395.973182727117, 538.9046240150928, -7600.563150899019, 0.0, 0.0, 0.0, 0.0, 0.0, 0.0, 0.0, 0.0, 1.667045360730159E9, 0.0, 2022-10-29 14:09:20.730
191.0, 2873.5353014045395, 9581.309534881264, 331.51595177222043, -7988.267359605525, 0.0, 0.0, 0.0, 0.0, 0.0, 0.0, 0.0, 0.0, 1.6670453607436671E9, 0.0, 2022-10-29 14:09:20.743
191.0, 3353.768374914769, 9272.055337595288, 415.51784467697144, -8161.6771708009765, 0.0, 0.0, 0.0, 0.0, 0.0, 0.0, 0.0, 0.0, 1.6670453607436671E9, 0.0, 2022-10-29 14:09:20.743
192.0, 3661.711737266276, 9166.102101900615, 459.90671725105494, -8436.969336589333, 0.0, 0.0, 0.0, 0.0, 0.0, 0.0, 0.0, 0.0, 1.6670453607593606E9, 0.0, 2022-10-29 14:09:20.759
192.0, 3313.76640498871, 9395.270081535447, 534.2877175197937, -8549.11397666065, 0.0, 0.0, 0.0, 0.0, 0.0, 0.0, 0.0, 0.0, 1.6670453607593606E9, 0.0, 2022-10-29 14:09:20.759
193.0, 2868.7257900615223, 9575.179838853888, 328.0322349634953, -8976.906172992196, 0.0, 0.0, 0.0, 0.0, 0.0, 0.0, 0.0, 0.0, 1.667045360760095E9, 0.0, 2022-10-29 14:09:20.760
193.0, 2380.2929858984426, 9279.467819307465, 423.53806013194844, -9138.875630223192, 0.0, 0.0, 0.0, 0.0, 0.0, 0.0, 0.0, 0.0, 1.667045360760095E9, 0.0, 2022-10-29 14:09:20.760
194.0, 2699.8749169120565, 9181.293575520627, 460.70144599163905, -9430.06237082323, 0.0, 0.0, 0.0, 0.0, 0.0, 0.0, 0.0, 0.0, 1.6670453607737134E9, 0.0, 2022-10-29 14:09:20.773
194.0, 2330.8702079840004, 9398.224602500442, 531.0059553086758, -9550.042101301719, 0.0, 0.0, 0.0, 0.0, 0.0, 0.0, 0.0, 0.0, 1.6670453607737134E9, 0.0, 2022-10-29 14:09:20.773
195.0, 1873.8207742990926, 9557.654667661525, 301.27512073051184, -9984.53619835386, 0.0, 0.0, 0.0, 0.0, 0.0, 0.0, 0.0, 0.0, 1.6670453607893353E9, 0.0, 2022-10-29 14:09:20.789
195.0, 1414.439512991812, 9284.1576538519, 433.4319654647261, -10102.483293206431, 0.0, 0.0, 0.0, 0.0, 0.0, 0.0, 0.0, 0.0, 1.6670453607893353E9, 0.0, 2022-10-29 14:09:20.789
196.0, 1709.166068899911, 9164.93525311444, 458.8894644631073, -10365.658183138352, 0.0, 0.0, 0.0, 0.0, 0.0, 0.0, 0.0, 0.0, 1.667045360790063E9, 0.0, 2022-10-29 14:09:20.790
196.0, 1349.3091552634723, 9396.575306619983, 531.4640930532478, -10515.609471861739, 0.0, 0.0, 0.0, 0.0, 0.0, 0.0, 0.0, 0.0, 1.667045360790063E9, 0.0, 2022-10-29 14:09:20.790
197.0, 907.8214452941902, 9576.253190141171, 316.93221189500764, -10934.07809760375, 0.0, 0.0, 0.0, 0.0, 0.0, 0.0, 0.0, 0.0, 1.667045360803641E9, 0.0, 2022-10-29 14:09:20.803
197.0, 430.00621710531414, 9293.462524941657, 443.153835399542, -11077.796843050979, 0.0, 0.0, 0.0, 0.0, 0.0, 0.0, 0.0, 0.0, 1.667045360803641E9, 0.0, 2022-10-29 14:09:20.803
198.0, 708.9167361008003, 9147.870089616627, 444.758252480533, -11398.678389299195, 0.0, 0.0, 0.0, 0.0, 0.0, 0.0, 0.0, 0.0, 1.667045360819713E9, 0.0, 2022-10-29 14:09:20.819
198.0, 370.3286335123703, 9391.765795276966, 522.5650011086836, -11510.471478774678, 0.0, 0.0, 0.0, 0.0, 0.0, 0.0, 0.0, 0.0, 1.667045360819713E9, 0.0, 2022-10-29 14:09:20.819
199.0, -12.86525584757328, 9617.71372104995, 362.48232340533286, -11875.208961853292, 0.0, 0.0, 0.0, 0.0, 0.0, 0.0, 0.0, 0.0, 1.667045360835024E9, 0.0, 2022-10-29 14:09:20.835
199.0, 415.95541297178715, 9262.324117910583, 415.54402397666126, -12061.618665294722, 0.0, 0.0, 0.0, 0.0, 0.0, 0.0, 0.0, 0.0, 1.667045360835024E9, 0.0, 2022-10-29 14:09:20.835
200.0, 687.8760589500889, 9129.817592530511, 430.22313130274415, -12396.65947277518, 0.0, 0.0, 0.0, 0.0, 0.0, 0.0, 0.0, 0.0, 1.6670453608358407E9, 0.0, 2022-10-29 14:09:20.835
200.0, 369.5769136212766, 9390.879438987467, 535.9070942006074, -12506.519033973571, 0.0, 0.0, 0.0, 0.0, 0.0, 0.0, 0.0, 0.0, 1.6670453608358407E9, 0.0, 2022-10-29 14:09:20.835
0.0, -5495.50436233962, -4845.547149040271, -7382.076325537637, -4308.342309555039, 0.0, 0.0, 0.0, 0.0, 0.0, 0.0, 0.0, 0.0, 1.6670453608364947E9, 0.0, 2022-10-29 14:09:20.836
101.0, -5087.761769670527, -5223.753881809302, -7356.140119344927, -4511.503024898004, 0.0, 0.0, 0.0, 0.0, 0.0, 0.0, 0.0, 0.0, 1.6670453608486617E9, 0.0, 2022-10-29 14:09:20.848
101.0, -4843.29198936699, -5387.237998522352, -7373.917733784299, -4851.918068614788, 0.0, 0.0, 0.0, 0.0, 0.0, 0.0, 0.0, 0.0, 1.6670453608486617E9, 0.0, 2022-10-29 14:09:20.848
102.0, -5139.981992751826, -5108.441546475515, -7241.916094898246, -4960.513543628156, 0.0, 0.0, 0.0, 0.0, 0.0, 0.0, 0.0, 0.0, 1.6670453608642786E9, 0.0, 2022-10-29 14:09:20.864
102.0, -5449.503592884634, -4803.525633138139, -7337.593955464661, -5262.110295754857, 0.0, 0.0, 0.0, 0.0, 0.0, 0.0, 0.0, 0.0, 1.6670453608642786E9, 0.0, 2022-10-29 14:09:20.864
103.0, -5085.379453398753, -5215.600899905898, -7344.671716130804, -5465.084016100038, 0.0, 0.0, 0.0, 0.0, 0.0, 0.0, 0.0, 0.0, 1.6670453608650997E9, 0.0, 2022-10-29 14:09:20.865
103.0, -4877.654190159868, -5410.61611314537, -7418.663766804151, -5851.294134774245, 0.0, 0.0, 0.0, 0.0, 0.0, 0.0, 0.0, 0.0, 1.6670453608650997E9, 0.0, 2022-10-29 14:09:20.865
104.0, -5131.787871948909, -5099.185294085182, -7234.539142235648, -5905.496504832059, 0.0, 0.0, 0.0, 0.0, 0.0, 0.0, 0.0, 0.0, 1.667045360878722E9, 0.0, 2022-10-29 14:09:20.878
104.0, -5413.503315911163, -4781.594859797973, -7301.8797808378, -6198.061398565769, 0.0, 0.0, 0.0, 0.0, 0.0, 0.0, 0.0, 0.0, 1.667045360878722E9, 0.0, 2022-10-29 14:09:20.878
105.0, -5072.62639454985, -5206.591480912641, -7341.348815020174, -6436.698804888409, 0.0, 0.0, 0.0, 0.0, 0.0, 0.0, 0.0, 0.0, 1.6670453608943193E9, 0.0, 2022-10-29 14:09:20.894
105.0, -4904.805863838177, -5446.754766417202, -7446.37081562588, -6848.108369464055, 0.0, 0.0, 0.0, 0.0, 0.0, 0.0, 0.0, 0.0, 1.6670453608943193E9, 0.0, 2022-10-29 14:09:20.894
106.0, -5126.106963916216, -5091.166948580183, -7225.770946789533, -6892.845052734017, 0.0, 0.0, 0.0, 0.0, 0.0, 0.0, 0.0, 0.0, 1.667045360895028E9, 0.0, 2022-10-29 14:09:20.895
106.0, -5374.013712279033, -4733.028518973384, -7262.298549656756, -7140.258134302683, 0.0, 0.0, 0.0, 0.0, 0.0, 0.0, 0.0, 0.0, 1.667045360895028E9, 0.0, 2022-10-29 14:09:20.895
107.0, -5064.323816648219, -5196.097321636975, -7320.841073613148, -7394.909792235587, 0.0, 0.0, 0.0, 0.0, 0.0, 0.0, 0.0, 0.0, 1.66704536090862E9, 0.0, 2022-10-29 14:09:20.908
107.0, -4953.058053066488, -5477.545362752397, -7487.8519159844145, -7852.581919263117, 0.0, 0.0, 0.0, 0.0, 0.0, 0.0, 0.0, 0.0, 1.66704536090862E9, 0.0, 2022-10-29 14:09:20.908
108.0, -5130.071257869247, -5095.688487626612, -7224.587268453557, -7872.867136622779, 0.0, 0.0, 0.0, 0.0, 0.0, 0.0, 0.0, 0.0, 1.667045360924781E9, 0.0, 2022-10-29 14:09:20.924
108.0, -5371.597736907657, -4720.140823726077, -7246.379665495362, -8140.572915351018, 0.0, 0.0, 0.0, 0.0, 0.0, 0.0, 0.0, 0.0, 1.667045360924781E9, 0.0, 2022-10-29 14:09:20.924
109.0, -5085.218637700658, -4232.970235798042, -7353.4735706765205, -8381.057832251769, 0.0, 0.0, 0.0, 0.0, 0.0, 0.0, 0.0, 0.0, 1.6670453609394023E9, 0.0, 2022-10-29 14:09:20.939
109.0, -4945.959722950589, -4496.171305029653, -7494.5220275553875, -8812.266427192837, 0.0, 0.0, 0.0, 0.0, 0.0, 0.0, 0.0, 0.0, 1.6670453609394023E9, 0.0, 2022-10-29 14:09:20.939
110.0, -5147.027964268345, -4135.972190547269, -7251.2957639871165, -8871.289528293535, 0.0, 0.0, 0.0, 0.0, 0.0, 0.0, 0.0, 0.0, 1.6670453609400167E9, 0.0, 2022-10-29 14:09:20.940
110.0, -5324.804108662065, -3700.533768756315, -7200.446214239579, -9089.550089707598, 0.0, 0.0, 0.0, 0.0, 0.0, 0.0, 0.0, 0.0, 1.6670453609400167E9, 0.0, 2022-10-29 14:09:20.940
111.0, -5096.898345262278, -3263.3581634359434, -7373.8560254350305, -9377.307342048269, 0.0, 0.0, 0.0, 0.0, 0.0, 0.0, 0.0, 0.0, 1.6670453609542975E9, 0.0, 2022-10-29 14:09:20.954
111.0, -4956.412743326742, -3520.6240114378743, -7484.929184169043, -9810.67385926377, 0.0, 0.0, 0.0, 0.0, 0.0, 0.0, 0.0, 0.0, 1.6670453609542975E9, 0.0, 2022-10-29 14:09:20.954
112.0, -5144.383854999673, -3149.7437426820397, -7241.987152997404, -9843.053913080133, 0.0, 0.0, 0.0, 0.0, 0.0, 0.0, 0.0, 0.0, 1.6670453609550593E9, 0.0, 2022-10-29 14:09:20.955
112.0, -5295.494512709323, -2691.5779488603584, -7179.457895688247, -10011.3307115864, 0.0, 0.0, 0.0, 0.0, 0.0, 0.0, 0.0, 0.0, 1.6670453609550593E9, 0.0, 2022-10-29 14:09:20.955
113.0, -5079.960338362958, -2265.289192311, -7356.514109340496, -10307.528918127064, 0.0, 0.0, 0.0, 0.0, 0.0, 0.0, 0.0, 0.0, 1.667045360968614E9, 0.0, 2022-10-29 14:09:20.968
113.0, -4981.365355831105, -2566.6783799901605, -7517.107283387799, -10778.717043594457, 0.0, 0.0, 0.0, 0.0, 0.0, 0.0, 0.0, 0.0, 1.667045360968614E9, 0.0, 2022-10-29 14:09:20.968
114.0, -5137.681954279076, -2160.014748458285, -7232.712201107293, -10765.528286400717, 0.0, 0.0, 0.0, 0.0, 0.0, 0.0, 0.0, 0.0, 1.667045360984406E9, 0.0, 2022-10-29 14:09:20.984
114.0, -5264.6777370744385, -1679.641428699717, -7156.091000765096, -10912.970102253836, 0.0, 0.0, 0.0, 0.0, 0.0, 0.0, 0.0, 0.0, 1.667045360984406E9, 0.0, 2022-10-29 14:09:20.984
115.0, -5085.398152898531, -1291.5220910981297, -7366.903551417403, -11280.387223650701, 0.0, 0.0, 0.0, 0.0, 0.0, 0.0, 0.0, 0.0, 1.66704536098504E9, 0.0, 2022-10-29 14:09:20.985
115.0, -5004.616313855629, -1615.694749307353, -7534.396840882953, -10824.968386346474, 0.0, 0.0, 0.0, 0.0, 0.0, 0.0, 0.0, 0.0, 1.66704536098504E9, 0.0, 2022-10-29 14:09:20.985
116.0, -5140.14280844992, -1188.884276714176, -7241.052178008482, -10813.342907334212, 0.0, 0.0, 0.0, 0.0, 0.0, 0.0, 0.0, 0.0, 1.6670453609985876E9, 0.0, 2022-10-29 14:09:20.998
116.0, -5242.877860232722, -1650.0625599501655, -7143.240704517346, -10927.634249980096, 0.0, 0.0, 0.0, 0.0, 0.0, 0.0, 0.0, 0.0, 1.6670453609985876E9, 0.0, 2022-10-29 14:09:20.998
117.0, -5094.818960886914, -1298.467085315846, -7376.212162407115, -11299.453233624808, 0.0, 0.0, 0.0, 0.0, 0.0, 0.0, 0.0, 0.0, 1.667045361014334E9, 0.0, 2022-10-29 14:09:21.014
117.0, -5020.181777471211, -1632.9319482031278, -7543.260403777938, -10852.67730511818, 0.0, 0.0, 0.0, 0.0, 0.0, 0.0, 0.0, 0.0, 1.667045361014334E9, 0.0, 2022-10-29 14:09:21.014
118.0, -5149.387841140386, -1193.454434460029, -7247.87375552766, -10822.857212821487, 0.0, 0.0, 0.0, 0.0, 0.0, 0.0, 0.0, 0.0, 1.667045361015102E9, 0.0, 2022-10-29 14:09:21.015
118.0, -5204.027779493015, -1609.8474157266319, -7111.27951949602, -10884.494503991213, 0.0, 0.0, 0.0, 0.0, 0.0, 0.0, 0.0, 0.0, 1.667045361015102E9, 0.0, 2022-10-29 14:09:21.015
119.0, -5101.745255604852, -1307.1660926127806, -7395.876556374133, -11314.457712247036, 0.0, 0.0, 0.0, 0.0, 0.0, 0.0, 0.0, 0.0, 1.667045361028626E9, 0.0, 2022-10-29 14:09:21.028
119.0, -5049.764386120718, -1669.2463767728768, -7574.828899303917, -10890.607370468788, 0.0, 0.0, 0.0, 0.0, 0.0, 0.0, 0.0, 0.0, 1.667045361028626E9, 0.0, 2022-10-29 14:09:21.028
120.0, -5145.902254381683, -1195.0663313409314, -7244.470446567982, -10823.728609511163, 0.0, 0.0, 0.0, 0.0, 0.0, 0.0, 0.0, 0.0, 1.6670453610443316E9, 0.0, 2022-10-29 14:09:21.044
120.0, -5169.7366367992945, -1576.1733565256, -7073.510269843508, -10832.21818241058, 0.0, 0.0, 0.0, 0.0, 0.0, 0.0, 0.0, 0.0, 1.6670453610443316E9, 0.0, 2022-10-29 14:09:21.044
121.0, -5102.3660789974965, -1308.2095247004181, -7380.0792189612985, -11306.502945041284, 0.0, 0.0, 0.0, 0.0, 0.0, 0.0, 0.0, 0.0, 1.667045361045116E9, 0.0, 2022-10-29 14:09:21.045
121.0, -5097.960476849694, -1703.7357341642492, -7625.646659901831, -10924.3674473688, 0.0, 0.0, 0.0, 0.0, 0.0, 0.0, 0.0, 0.0, 1.667045361045116E9, 0.0, 2022-10-29 14:09:21.045
122.0, -5153.916859986726, -2179.1817357311957, -7250.966652791016, -10827.719082763884, 0.0, 0.0, 0.0, 0.0, 0.0, 0.0, 0.0, 0.0, 1.6670453610585904E9, 0.0, 2022-10-29 14:09:21.058
122.0, -5087.625263322145, -2476.9114313037135, -6973.898034523707, -10746.034057881683, 0.0, 0.0, 0.0, 0.0, 0.0, 0.0, 0.0, 0.0, 1.6670453610585904E9, 0.0, 2022-10-29 14:09:21.058
123.0, -5134.835890412796, -2311.6564719616435, -7413.820596361533, -10361.273150440305, 0.0, 0.0, 0.0, 0.0, 0.0, 0.0, 0.0, 0.0, 1.6670453610743024E9, 0.0, 2022-10-29 14:09:21.074
123.0, -5133.814897724893, -2724.6592339184135, -7657.147837228607, -10005.870457651094, 0.0, 0.0, 0.0, 0.0, 0.0, 0.0, 0.0, 0.0, 1.6670453610743024E9, 0.0, 2022-10-29 14:09:21.074
124.0, -5150.2592378300615, -3157.8742851857096, -7245.095009860583, -9859.36174683692, 0.0, 0.0, 0.0, 0.0, 0.0, 0.0, 0.0, 0.0, 1.6670453610751195E9, 0.0, 2022-10-29 14:09:21.075
124.0, -5019.005578935146, -3394.681010480039, -6911.5613820622675, -9691.131697080098, 0.0, 0.0, 0.0, 0.0, 0.0, 0.0, 0.0, 0.0, 1.6670453610751195E9, 0.0, 2022-10-29 14:09:21.075
125.0, -5148.08261605585, -3309.953576983884, -6450.405538226012, -9410.590581703931, 0.0, 0.0, 0.0, 0.0, 0.0, 0.0, 0.0, 0.0, 1.6670453610886316E9, 0.0, 2022-10-29 14:09:21.088
125.0, -5186.710172748193, -3768.71401489852, -6739.684929848649, -9092.62802737113, 0.0, 0.0, 0.0, 0.0, 0.0, 0.0, 0.0, 0.0, 1.6670453610886316E9, 0.0, 2022-10-29 14:09:21.088
126.0, -5148.89791424619, -4137.599047027994, -6266.656773603056, -8876.953606776427, 0.0, 0.0, 0.0, 0.0, 0.0, 0.0, 0.0, 0.0, 1.6670453611045306E9, 0.0, 2022-10-29 14:09:21.104
126.0, -4963.7784762894735, -4309.967296085786, -5881.774319413118, -8639.288574442267, 0.0, 0.0, 0.0, 0.0, 0.0, 0.0, 0.0, 0.0, 1.6670453611045306E9, 0.0, 2022-10-29 14:09:21.104
127.0, -5165.914459044579, -4315.601455369033, -5492.716266922653, -8459.06279557757, 0.0, 0.0, 0.0, 0.0, 0.0, 0.0, 0.0, 0.0, 1.667045361105085E9, 0.0, 2022-10-29 14:09:21.105
127.0, -5223.335013014264, -4785.465656252112, -5798.881306845229, -8165.671383953653, 0.0, 0.0, 0.0, 0.0, 0.0, 0.0, 0.0, 0.0, 1.667045361105085E9, 0.0, 2022-10-29 14:09:21.105
128.0, -5143.508718410041, -5115.725001639221, -6255.983099129517, -7898.004874174949, 0.0, 0.0, 0.0, 0.0, 0.0, 0.0, 0.0, 0.0, 1.6670453611187146E9, 0.0, 2022-10-29 14:09:21.118
128.0, -4902.810627211817, -5233.385994145181, -5828.772457241081, -7598.650192071684, 0.0, 0.0, 0.0, 0.0, 0.0, 0.0, 0.0, 0.0, 1.6670453611187146E9, 0.0, 2022-10-29 14:09:21.118
129.0, -5192.882877625059, -5321.978614245541, -5519.191018708982, -7501.786783219315, 0.0, 0.0, 0.0, 0.0, 0.0, 0.0, 0.0, 0.0, 1.66704536113439E9, 0.0, 2022-10-29 14:09:21.134
129.0, -5268.557883278467, -5802.22103750566, -5837.271379890386, -7215.804113407619, 0.0, 0.0, 0.0, 0.0, 0.0, 0.0, 0.0, 0.0, 1.66704536113439E9, 0.0, 2022-10-29 14:09:21.134
130.0, -5136.769418689888, -6085.881229444873, -6254.988285741303, -6909.500697186682, 0.0, 0.0, 0.0, 0.0, 0.0, 0.0, 0.0, 0.0, 1.6670453611351366E9, 0.0, 2022-10-29 14:09:21.135
130.0, -4853.1709350999445, -6159.7292939699255, -6741.867161472794, -6554.862813938409, 0.0, 0.0, 0.0, 0.0, 0.0, 0.0, 0.0, 0.0, 1.6670453611351366E9, 0.0, 2022-10-29 14:09:21.135
131.0, -5219.09583641449, -6325.505969355814, -6524.964183742646, -6551.006977084093, 0.0, 0.0, 0.0, 0.0, 0.0, 0.0, 0.0, 0.0, 1.667045361148607E9, 0.0, 2022-10-29 14:09:21.148
131.0, -5283.094874406233, -6797.105483818334, -6819.9132636981085, -6269.7702403161675, 0.0, 0.0, 0.0, 0.0, 0.0, 0.0, 0.0, 0.0, 1.667045361148607E9, 0.0, 2022-10-29 14:09:21.148
132.0, -5129.0801843809895, -7059.216372212861, -7225.393216894008, -5913.213788390625, 0.0, 0.0, 0.0, 0.0, 0.0, 0.0, 0.0, 0.0, 1.6670453611644144E9, 0.0, 2022-10-29 14:09:21.164
132.0, -4841.091058243066, -7109.27493311977, -6746.556996017229, -5537.703523489647, 0.0, 0.0, 0.0, 0.0, 0.0, 0.0, 0.0, 0.0, 1.6670453611644144E9, 0.0, 2022-10-29 14:09:21.164
133.0, -5216.911734840367, -7306.721081330441, -6519.803121803794, -5573.664531513583, 0.0, 0.0, 0.0, 0.0, 0.0, 0.0, 0.0, 0.0, 1.6670453611651309E9, 0.0, 2022-10-29 14:09:21.165
133.0, -5292.799914791249, -7791.316748138983, -6836.368823503144, -5301.770064834971, 0.0, 0.0, 0.0, 0.0, 0.0, 0.0, 0.0, 0.0, 1.6670453611651309E9, 0.0, 2022-10-29 14:09:21.165
134.0, -5125.09719092818, -8036.358733135741, -7224.61905760318, -4929.259199698456, 0.0, 0.0, 0.0, 0.0, 0.0, 0.0, 0.0, 0.0, 1.667045361178713E9, 0.0, 2022-10-29 14:09:21.178
134.0, -4829.175736984238, -8090.598502193112, -7714.755386196077, -4541.437184143346, 0.0, 0.0, 0.0, 0.0, 0.0, 0.0, 0.0, 0.0, 1.667045361178713E9, 0.0, 2022-10-29 14:09:21.178
135.0, -5209.031765633728, -8293.976131733507, -7495.660827091895, -4591.097445704974, 0.0, 0.0, 0.0, 0.0, 0.0, 0.0, 0.0, 0.0, 1.667045361194337E9, 0.0, 2022-10-29 14:09:21.194
135.0, -5308.918883600272, -7821.37619403284, -7842.968506427016, -4336.526195621118, 0.0, 0.0, 0.0, 0.0, 0.0, 0.0, 0.0, 0.0, 1.667045361194337E9, 0.0, 2022-10-29 14:09:21.194
136.0, -5114.513274053577, -8021.169129465707, -8191.198071101215, -3935.9062424176373, 0.0, 0.0, 0.0, 0.0, 0.0, 0.0, 0.0, 0.0, 1.6670453611950586E9, 0.0, 2022-10-29 14:09:21.195
136.0, -4831.87220485229, -8090.611591842957, -7732.302996788174, -3558.9748155334964, 0.0, 0.0, 0.0, 0.0, 0.0, 0.0, 0.0, 0.0, 1.6670453611950586E9, 0.0, 2022-10-29 14:09:21.195
137.0, -5214.723893366288, -8295.103711570147, -7490.335209554993, -3605.7179551296867, 0.0, 0.0, 0.0, 0.0, 0.0, 0.0, 0.0, 0.0, 1.6670453612087996E9, 0.0, 2022-10-29 14:09:21.208
137.0, -5319.113850879483, -7816.325459142681, -7843.96331981523, -3366.394277165178, 0.0, 0.0, 0.0, 0.0, 0.0, 0.0, 0.0, 0.0, 1.6670453612087996E9, 0.0, 2022-10-29 14:09:21.208
138.0, -5124.861577230971, -8029.877486512531, -8209.201949487906, -2961.4921385124326, 0.0, 0.0, 0.0, 0.0, 0.0, 0.0, 0.0, 0.0, 1.6670453612243128E9, 0.0, 2022-10-29 14:09:21.224
138.0, -4822.021308369003, -8089.334416008089, -7727.83755624108, -2577.873770507518, 0.0, 0.0, 0.0, 0.0, 0.0, 0.0, 0.0, 0.0, 1.6670453612243128E9, 0.0, 2022-10-29 14:09:21.224
139.0, -5225.663100736681, -8296.92317289859, -7506.671092561446, -2650.2202652003616, 0.0, 0.0, 0.0, 0.0, 0.0, 0.0, 0.0, 0.0, 1.6670453612250667E9, 0.0, 2022-10-29 14:09:21.225
139.0, -5294.206117174588, -8784.174168675672, -7817.776540325489, -2376.9906542375684, 0.0, 0.0, 0.0, 0.0, 0.0, 0.0, 0.0, 0.0, 1.6670453612250667E9, 0.0, 2022-10-29 14:09:21.225
140.0, -5134.215067020152, -9013.269220261369, -8214.026420430746, -1984.8976729330607, 0.0, 0.0, 0.0, 0.0, 0.0, 0.0, 0.0, 0.0, 1.6670453612386537E9, 0.0, 2022-10-29 14:09:21.238
140.0, -4817.372612724081, -9047.051736561116, -8694.106158042792, -1577.534680109471, 0.0, 0.0, 0.0, 0.0, 0.0, 0.0, 0.0, 0.0, 1.6670453612386537E9, 0.0, 2022-10-29 14:09:21.238
141.0, -5210.53146551596, -9262.004356464371, -8465.594530850183, -1642.0460843951441, 0.0, 0.0, 0.0, 0.0, 0.0, 0.0, 0.0, 0.0, 1.6670453612544036E9, 0.0, 2022-10-29 14:09:21.254
141.0, -5312.127717762254, -8799.767681540921, -8815.48274115473, -1397.385569193866, 0.0, 0.0, 0.0, 0.0, 0.0, 0.0, 0.0, 0.0, 1.6670453612544036E9, 0.0, 2022-10-29 14:09:21.254
142.0, -5123.533912746701, -9018.626626947895, -9191.93733079452, -1004.1294790031388, 0.0, 0.0, 0.0, 0.0, 0.0, 0.0, 0.0, 0.0, 1.6670453612551355E9, 0.0, 2022-10-29 14:09:21.255
142.0, -4846.64106977731, -9093.832275156863, -8739.265450007748, -637.0601683021523, 0.0, 0.0, 0.0, 0.0, 0.0, 0.0, 0.0, 0.0, 1.6670453612551355E9, 0.0, 2022-10-29 14:09:21.255
143.0, -5203.032966104802, -9263.389989397954, -8455.631437368225, -666.9176595984027, 0.0, 0.0, 0.0, 0.0, 0.0, 0.0, 0.0, 0.0, 1.6670453612687263E9, 0.0, 2022-10-29 14:09:21.268
143.0, -5304.38238495402, -8791.029405294452, -8813.220101681538, -413.677813898772, 0.0, 0.0, 0.0, 0.0, 0.0, 0.0, 0.0, 0.0, 1.6670453612687263E9, 0.0, 2022-10-29 14:09:21.268
144.0, -5134.398322117981, -9025.805364912841, -9199.518108004704, -41.17816846212372, 0.0, 0.0, 0.0, 0.0, 0.0, 0.0, 0.0, 0.0, 1.6670453612844715E9, 0.0, 2022-10-29 14:09:21.284
144.0, -4862.490765789524, -9108.169181637, -8743.899186052848, 320.06063820794225, 0.0, 0.0, 0.0, 0.0, 0.0, 0.0, 0.0, 0.0, 1.6670453612844715E9, 0.0, 2022-10-29 14:09:21.284
145.0, -5199.77177334344, -9269.618792774156, -8448.465789053123, 315.0473023173399, 0.0, 0.0, 0.0, 0.0, 0.0, 0.0, 0.0, 0.0, 1.667045361285094E9, 0.0, 2022-10-29 14:09:21.285
145.0, -5294.886778966524, -9755.871235263068, -8796.244695782661, 572.6254319655709, 0.0, 0.0, 0.0, 0.0, 0.0, 0.0, 0.0, 0.0, 1.667045361285094E9, 0.0, 2022-10-29 14:09:21.285
146.0, -5142.278291324619, -10010.532242945861, -9212.028073356487, 934.7992136245593, 0.0, 0.0, 0.0, 0.0, 0.0, 0.0, 0.0, 0.0, 1.6670453612986665E9, 0.0, 2022-10-29 14:09:21.298
146.0, -4878.269403702579, -10100.364639881533, -8762.01526143821, 1270.7675162940286, 0.0, 0.0, 0.0, 0.0, 0.0, 0.0, 0.0, 0.0, 1.6670453612986665E9, 0.0, 2022-10-29 14:09:21.298
147.0, -5187.617098487448, -10226.273981739767, -8431.77461555088, 1305.9861541767605, 0.0, 0.0, 0.0, 0.0, 0.0, 0.0, 0.0, 0.0, 1.6670453613144891E9, 0.0, 2022-10-29 14:09:21.314
147.0, -5274.448225708678, -9738.770542715676, -8775.166619632393, 1586.4749109535478, 0.0, 0.0, 0.0, 0.0, 0.0, 0.0, 0.0, 0.0, 1.6670453613144891E9, 0.0, 2022-10-29 14:09:21.314
148.0, -5136.597383291926, -10003.562939378433, -9206.586518920958, 1927.3686618646607, 0.0, 0.0, 0.0, 0.0, 0.0, 0.0, 0.0, 0.0, 1.667045361315046E9, 0.0, 2022-10-29 14:09:21.315
148.0, -4913.151450589299, -10135.368233516812, -8813.05367613351, 2228.1744251507334, 0.0, 0.0, 0.0, 0.0, 0.0, 0.0, 0.0, 0.0, 1.667045361315046E9, 0.0, 2022-10-29 14:09:21.315
149.0, -5167.376759927254, -10213.373196842615, -8402.023711403366, 2311.215163766872, 0.0, 0.0, 0.0, 0.0, 0.0, 0.0, 0.0, 0.0, 1.6670453613287127E9, 0.0, 2022-10-29 14:09:21.328
149.0, -5262.244932153262, -9729.867710871156, -8766.404034036212, 2577.5184800117277, 0.0, 0.0, 0.0, 0.0, 0.0, 0.0, 0.0, 0.0, 1.6670453613287127E9, 0.0, 2022-10-29 14:09:21.328
150.0, -5148.617421749514, -10013.385786612052, -9211.01830036845, 2897.6595260687172, 0.0, 0.0, 0.0, 0.0, 0.0, 0.0, 0.0, 0.0, 1.6670453613444004E9, 0.0, 2022-10-29 14:09:21.344
150.0, -4962.503170404583, -10177.069987972733, -8864.626896522474, 3162.6781866787933, 0.0, 0.0, 0.0, 0.0, 0.0, 0.0, 0.0, 0.0, 1.6670453613444004E9, 0.0, 2022-10-29 14:09:21.344
151.0, -5158.5318965320475, -10208.109287654981, -8395.037578286137, 3293.9524150234647, 0.0, 0.0, 0.0, 0.0, 0.0, 0.0, 0.0, 0.0, 1.6670453613452706E9, 0.0, 2022-10-29 14:09:21.345
151.0, -5240.362777512521, -10689.851410797331, -8746.39556927327, 3566.7145384917967, 0.0, 0.0, 0.0, 0.0, 0.0, 0.0, 0.0, 0.0, 1.6670453613452706E9, 0.0, 2022-10-29 14:09:21.345
152.0, -5166.572681436781, -11016.632649225648, -8258.291876306292, 3846.5918216258287, 0.0, 0.0, 0.0, 0.0, 0.0, 0.0, 0.0, 0.0, 1.6670453613586564E9, 0.0, 2022-10-29 14:09:21.358
152.0, -4984.579799843021, -11179.437974096742, -7892.718525587581, 4113.394414514769, 0.0, 0.0, 0.0, 0.0, 0.0, 0.0, 0.0, 0.0, 1.6670453613586564E9, 0.0, 2022-10-29 14:09:21.358
153.0, -5137.9325275761075, -11161.718328106683, -8368.207536004018, 4289.730697425548, 0.0, 0.0, 0.0, 0.0, 0.0, 0.0, 0.0, 0.0, 1.6670453613744588E9, 0.0, 2022-10-29 14:09:21.374
153.0, -5215.009995712899, -11634.955918749794, -8710.69822419621, 4578.282678506803, 0.0, 0.0, 0.0, 0.0, 0.0, 0.0, 0.0, 0.0, 1.6670453613744588E9, 0.0, 2022-10-29 14:09:21.374
154.0, -5167.507656425703, -11994.315425692126, -8253.40756696416, 4836.621877796017, 0.0, 0.0, 0.0, 0.0, 0.0, 0.0, 0.0, 0.0, 1.6670453613751001E9, 0.0, 2022-10-29 14:09:21.375
154.0, -5031.463185687549, -12210.1188728353, -7957.729206517339, 5045.096990976017, 0.0, 0.0, 0.0, 0.0, 0.0, 0.0, 0.0, 0.0, 1.6670453613751001E9, 0.0, 2022-10-29 14:09:21.375
155.0, -5089.672858547885, -12096.16412118543, -8303.00612017652, 5318.236844339874, 0.0, 0.0, 0.0, 0.0, 0.0, 0.0, 0.0, 0.0, 1.6670453613887265E9, 0.0, 2022-10-29 14:09:21.388
155.0, -5214.882839114405, -11627.161967242137, -8713.993076057173, 5572.082553832326, 0.0, 0.0, 0.0, 0.0, 0.0, 0.0, 0.0, 0.0, 1.6670453613887265E9, 0.0, 2022-10-29 14:09:21.388
156.0, -5173.626132753212, -12000.190808522515, -8260.614354178775, 5811.183707749471, 0.0, 0.0, 0.0, 0.0, 0.0, 0.0, 0.0, 0.0, 1.667045361404391E9, 0.0, 2022-10-29 14:09:21.404
156.0, -5066.1245784768835, -12233.553085957654, -8007.25670163054, 5984.354165347759, 0.0, 0.0, 0.0, 0.0, 0.0, 0.0, 0.0, 0.0, 1.667045361404391E9, 0.0, 2022-10-29 14:09:21.404
157.0, -5089.055775055196, -12095.898588288575, -8303.884996666107, 6310.155549987685, 0.0, 0.0, 0.0, 0.0, 0.0, 0.0, 0.0, 0.0, 1.6670453614049938E9, 0.0, 2022-10-29 14:09:21.404
157.0, -5194.145093860105, -11623.609062284231, -8674.443634025753, 6570.62836220162, 0.0, 0.0, 0.0, 0.0, 0.0, 0.0, 0.0, 0.0, 1.6670453614049938E9, 0.0, 2022-10-29 14:09:21.404
158.0, -5193.107271622401, -12026.609461809509, -8286.49446187215, 6763.231339969672, 0.0, 0.0, 0.0, 0.0, 0.0, 0.0, 0.0, 0.0, 1.6670453614186893E9, 0.0, 2022-10-29 14:09:21.418
158.0, -5073.196729293093, -12260.547683837824, -8013.539733556099, 6936.413017267827, 0.0, 0.0, 0.0, 0.0, 0.0, 0.0, 0.0, 0.0, 1.6670453614186893E9, 0.0, 2022-10-29 14:09:21.418
159.0, -5078.759830477182, -12083.302605237812, -8296.427636154462, 7281.710500376765, 0.0, 0.0, 0.0, 0.0, 0.0, 0.0, 0.0, 0.0, 1.66704536143436E9, 0.0, 2022-10-29 14:09:21.434
159.0, -5177.925147752278, -11608.91125545837, -8664.540378943086, 7549.2405038070865, 0.0, 0.0, 0.0, 0.0, 0.0, 0.0, 0.0, 0.0, 1.66704536143436E9, 0.0, 2022-10-29 14:09:21.434
160.0, -5191.400007292628, -12016.694987026975, -8291.461049013305, 7734.027090667747, 0.0, 0.0, 0.0, 0.0, 0.0, 0.0, 0.0, 0.0, 1.6670453614350457E9, 0.0, 2022-10-29 14:09:21.435
160.0, -5108.880984720308, -12284.090354058892, -8045.168067481369, 7887.536894198973, 0.0, 0.0, 0.0, 0.0, 0.0, 0.0, 0.0, 0.0, 1.6670453614350457E9, 0.0, 2022-10-29 14:09:21.435
161.0, -5039.1804692461155, -12055.507668767124, -8238.33577014273, 8298.738894327078, 0.0, 0.0, 0.0, 0.0, 0.0, 0.0, 0.0, 0.0, 1.667045361448732E9, 0.0, 2022-10-29 14:09:21.448
161.0, -5193.135320872068, -11617.124075761065, -8679.182087269612, 8531.132537673693, 0.0, 0.0, 0.0, 0.0, 0.0, 0.0, 0.0, 0.0, 1.667045361448732E9, 0.0, 2022-10-29 14:09:21.448
162.0, -5194.5452631553635, -12022.196379861794, -8290.107205229346, 8722.4901287565, 0.0, 0.0, 0.0, 0.0, 0.0, 0.0, 0.0, 0.0, 1.6670453614643452E9, 0.0, 2022-10-29 14:09:21.464
162.0, -5132.749026237521, -12301.499588352628, -8088.1095987726, 8834.60671957815, 0.0, 0.0, 0.0, 0.0, 0.0, 0.0, 0.0, 0.0, 1.6670453614643452E9, 0.0, 2022-10-29 14:09:21.464
163.0, -5032.317752827425, -12048.947884244844, -8229.015939453151, 9291.439239065628, 0.0, 0.0, 0.0, 0.0, 0.0, 0.0, 0.0, 0.0, 1.667045361465058E9, 0.0, 2022-10-29 14:09:21.465
163.0, -5184.600869173184, -11610.40347554069, -8665.681048429571, 9536.155852766242, 0.0, 0.0, 0.0, 0.0, 0.0, 0.0, 0.0, 0.0, 1.667045361465058E9, 0.0, 2022-10-29 14:09:21.465
164.0, -5210.780168863013, -12038.143313272856, -8313.73963304935, 9696.363817118108, 0.0, 0.0, 0.0, 0.0, 0.0, 0.0, 0.0, 0.0, 1.6670453614952211E9, 0.0, 2022-10-29 14:09:21.495
164.0, -5123.563831946347, -12291.955363665707, -8076.280295212753, 9837.083162800875, 0.0, 0.0, 0.0, 0.0, 0.0, 0.0, 0.0, 0.0, 1.6670453614952211E9, 0.0, 2022-10-29 14:09:21.495
165.0, -5045.280246073846, -12057.18688384723, -8258.333015205804, 10256.325947833713, 0.0, 0.0, 0.0, 0.0, 0.0, 0.0, 0.0, 0.0, 1.6670453614959629E9, 0.0, 2022-10-29 14:09:21.495
165.0, -5159.248087373562, -11589.957442482933, -8639.352152741514, 10517.939429534134, 0.0, 0.0, 0.0, 0.0, 0.0, 0.0, 0.0, 0.0, 1.6670453614959629E9, 0.0, 2022-10-29 14:09:21.495
166.0, -5219.524054959416, -12042.638673019595, -8317.386035506148, 10667.555997211486, 0.0, 0.0, 0.0, 0.0, 0.0, 0.0, 0.0, 0.0, 1.6670453614966152E9, 0.0, 2022-10-29 14:09:21.496
166.0, -5124.251973538194, -12299.453863076866, -8078.311060888693, 10804.311048941221, 0.0, 0.0, 0.0, 0.0, 0.0, 0.0, 0.0, 0.0, 1.6670453614966152E9, 0.0, 2022-10-29 14:09:21.496
167.0, -5041.888156814035, -12054.580173578113, -8247.47234573448, 11232.260321070906, 0.0, 0.0, 0.0, 0.0, 0.0, 0.0, 0.0, 0.0, 1.667045361508649E9, 0.0, 2022-10-29 14:09:21.508
167.0, -5151.5251939650625, -11582.660897669382, -8631.999509428628, 11489.763652720023, 0.0, 0.0, 0.0, 0.0, 0.0, 0.0, 0.0, 0.0, 1.667045361508649E9, 0.0, 2022-10-29 14:09:21.508
168.0, -5212.283608645201, -12042.649892719463, -8316.166828120593, 11646.433671713807, 0.0, 0.0, 0.0, 0.0, 0.0, 0.0, 0.0, 0.0, 1.667045361524322E9, 0.0, 2022-10-29 14:09:21.524
168.0, -5137.693173978943, -12306.974801887758, -8089.523280955851, 11777.380658812355, 0.0, 0.0, 0.0, 0.0, 0.0, 0.0, 0.0, 0.0, 1.667045361524322E9, 0.0, 2022-10-29 14:09:21.524
169.0, -5029.486648560967, -12038.090954673477, -8208.985035290476, 12241.558341812808, 0.0, 0.0, 0.0, 0.0, 0.0, 0.0, 0.0, 0.0, 1.66704536152518E9, 0.0, 2022-10-29 14:09:21.525
169.0, -5167.04203888122, -11596.670562903397, -8648.888897628523, 12467.807329532225, 0.0, 0.0, 0.0, 0.0, 0.0, 0.0, 0.0, 0.0, 1.66704536152518E9, 0.0, 2022-10-29 14:09:21.525
170.0, -5211.135459358804, -12032.8476149356, -8315.119656133, 12632.353577832691, 0.0, 0.0, 0.0, 0.0, 0.0, 0.0, 0.0, 0.0, 1.667045361538646E9, 0.0, 2022-10-29 14:09:21.538
170.0, -5148.078876155894, -12323.49393999204, -8104.834431374446, 12778.555616850499, 0.0, 0.0, 0.0, 0.0, 0.0, 0.0, 0.0, 0.0, 1.667045361538646E9, 0.0, 2022-10-29 14:09:21.538
171.0, -5026.838799392339, -12042.840627617203, -8218.3011260801, 13215.267474576365, 0.0, 0.0, 0.0, 0.0, 0.0, 0.0, 0.0, 0.0, 1.6670453615543373E9, 0.0, 2022-10-29 14:09:21.554
171.0, -5157.980261288583, -11606.196088090539, -8636.603326274082, 13449.276754703838, 0.0, 0.0, 0.0, 0.0, 0.0, 0.0, 0.0, 0.0, 1.6670453615543373E9, 0.0, 2022-10-29 14:09:21.554
172.0, -5220.937737142667, -12044.287968900055, -8325.460479510482, 13605.999132297002, 0.0, 0.0, 0.0, 0.0, 0.0, 0.0, 0.0, 0.0, 1.6670453615551298E9, 0.0, 2022-10-29 14:09:21.555
172.0, -5145.07199659152, -12321.425775316544, -8103.753600287251, 13747.64597316878, 0.0, 0.0, 0.0, 0.0, 0.0, 0.0, 0.0, 0.0, 1.6670453615551298E9, 0.0, 2022-10-29 14:09:21.555
173.0, -5017.84807989886, -12032.825175535865, -8206.714916017372, 14201.269658494275, 0.0, 0.0, 0.0, 0.0, 0.0, 0.0, 0.0, 0.0, 1.6670453615686505E9, 0.0, 2022-10-29 14:09:21.568
173.0, -5154.184262833558, -11586.834626019932, -8628.334407472052, 14443.618915522937, 0.0, 0.0, 0.0, 0.0, 0.0, 0.0, 0.0, 0.0, 1.6670453615686505E9, 0.0, 2022-10-29 14:09:21.568
174.0, -5215.713096904568, -12039.055848862045, -8325.348282511812, 14587.270342770964, 0.0, 0.0, 0.0, 0.0, 0.0, 0.0, 0.0, 0.0, 1.667045361584427E9, 0.0, 2022-10-29 14:09:21.584
174.0, -5143.377821911592, -12310.378110847436, -8102.018286707811, 14721.81137372693, 0.0, 0.0, 0.0, 0.0, 0.0, 0.0, 0.0, 0.0, 1.667045361584427E9, 0.0, 2022-10-29 14:09:21.584
175.0, -5003.973051063251, -12018.6172956042, -8182.543942603748, 15189.665378383826, 0.0, 0.0, 0.0, 0.0, 0.0, 0.0, 0.0, 0.0, 1.667045361585068E9, 0.0, 2022-10-29 14:09:21.585
175.0, -5165.650796097703, -11594.639797227457, -8646.820732953027, 15403.860668546055, 0.0, 0.0, 0.0, 0.0, 0.0, 0.0, 0.0, 0.0, 1.667045361585068E9, 0.0, 2022-10-29 14:09:21.585
176.0, -5218.70501686912, -12044.519842697307, -8325.864388705697, 15561.70127622597, 0.0, 0.0, 0.0, 0.0, 0.0, 0.0, 0.0, 0.0, 1.6670453615987606E9, 0.0, 2022-10-29 14:09:21.598
176.0, -5133.440907729324, -12303.732308626175, -8095.888590680435, 15713.273811580148, 0.0, 0.0, 0.0, 0.0, 0.0, 0.0, 0.0, 0.0, 1.6670453615987606E9, 0.0, 2022-10-29 14:09:21.598
177.0, -4975.074844105635, -11998.455494943075, -8156.581557111349, 16189.194780441467, 0.0, 0.0, 0.0, 0.0, 0.0, 0.0, 0.0, 0.0, 1.6670453616143944E9, 0.0, 2022-10-29 14:09:21.614
177.0, -5172.749126213603, -11608.52978566289, -7682.63899532659, 16350.769678227138, 0.0, 0.0, 0.0, 0.0, 0.0, 0.0, 0.0, 0.0, 1.6670453616143944E9, 0.0, 2022-10-29 14:09:21.614
178.0, -5235.519607069902, -12055.275794969872, -7357.67347832676, 16527.567838782445, 0.0, 0.0, 0.0, 0.0, 0.0, 0.0, 0.0, 0.0, 1.6670453616150815E9, 0.0, 2022-10-29 14:09:21.615
178.0, -5154.949072374497, -12316.268453277647, -7138.1432208777405, 16684.76518366998, 0.0, 0.0, 0.0, 0.0, 0.0, 0.0, 0.0, 0.0, 1.6670453616150815E9, 0.0, 2022-10-29 14:09:21.615
179.0, -4985.748518579174, -12000.935048613697, -7185.200512070209, 17159.56792244455, 0.0, 0.0, 0.0, 0.0, 0.0, 0.0, 0.0, 0.0, 1.6670453616286547E9, 0.0, 2022-10-29 14:09:21.628
179.0, -5178.048564450815, -11620.61714231968, -6698.650747534819, 17345.302573943976, 0.0, 0.0, 0.0, 0.0, 0.0, 0.0, 0.0, 0.0, 1.6670453616286547E9, 0.0, 2022-10-29 14:09:21.628
180.0, -5245.69961474929, -12064.56196655985, -6400.219820720609, 17505.50305849593, 0.0, 0.0, 0.0, 0.0, 0.0, 0.0, 0.0, 0.0, 1.6670453616449313E9, 0.0, 2022-10-29 14:09:21.644
180.0, -5147.914320557844, -12311.477641434409, -6146.252564479597, 17686.418848902453, 0.0, 0.0, 0.0, 0.0, 0.0, 0.0, 0.0, 0.0, 1.6670453616449313E9, 0.0, 2022-10-29 14:09:21.644
181.0, -4981.4102346305735, -11993.395410303026, -6182.299590202514, 18152.627297578845, 0.0, 0.0, 0.0, 0.0, 0.0, 0.0, 0.0, 0.0, 1.667045361659204E9, 0.0, 2022-10-29 14:09:21.659
181.0, -5187.446933039464, -11615.968446674757, -5726.16643200675, 18314.78935965756, 0.0, 0.0, 0.0, 0.0, 0.0, 0.0, 0.0, 0.0, 1.667045361659204E9, 0.0, 2022-10-29 14:09:21.659
182.0, -5250.112696697004, -12071.484521377832, -5428.113235088065, 18473.190952330828, 0.0, 0.0, 0.0, 0.0, 0.0, 0.0, 0.0, 0.0, 1.6670453616750214E9, 0.0, 2022-10-29 14:09:21.675
182.0, -5168.835320909973, -12326.6878145542, -5185.676090410445, 18632.37792399479, 0.0, 0.0, 0.0, 0.0, 0.0, 0.0, 0.0, 0.0, 1.6670453616750214E9, 0.0, 2022-10-29 14:09:21.675
183.0, -4963.900023038033, -11983.099465725012, -5183.821100032423, 18161.83680121973, 0.0, 0.0, 0.0, 0.0, 0.0, 0.0, 0.0, 0.0, 1.6670453616757963E9, 0.0, 2022-10-29 14:09:21.675
183.0, -5178.852642941289, -11609.573217750527, -4730.025379308965, 18317.465258075856, 0.0, 0.0, 0.0, 0.0, 0.0, 0.0, 0.0, 0.0, 1.6670453616757963E9, 0.0, 2022-10-29 14:09:21.675
184.0, -5261.388495063409, -12077.49080070667, -4450.652982668951, 18463.267127798405, 0.0, 0.0, 0.0, 0.0, 0.0, 0.0, 0.0, 0.0, 1.6670453616764874E9, 0.0, 2022-10-29 14:09:21.676
184.0, -5184.408264325466, -12351.752624057233, -4245.203448553104, 18642.402725826018, 0.0, 0.0, 0.0, 0.0, 0.0, 0.0, 0.0, 0.0, 1.6670453616764874E9, 0.0, 2022-10-29 14:09:21.676
185.0, -4951.87624468049, -11975.93381740991, -4190.7916440977715, 18170.9041886623, 0.0, 0.0, 0.0, 0.0, 0.0, 0.0, 0.0, 0.0, 1.6670453616886504E9, 0.0, 2022-10-29 14:09:21.688
185.0, -5161.08063835185, -11600.575018457137, -3724.777670219075, 18328.03982520057, 0.0, 0.0, 0.0, 0.0, 0.0, 0.0, 0.0, 0.0, 1.6670453616886504E9, 0.0, 2022-10-29 14:09:21.688
186.0, -5258.908941392787, -12078.096664499491, -3476.8391327066347, 18468.471198586747, 0.0, 0.0, 0.0, 0.0, 0.0, 0.0, 0.0, 0.0, 1.667045361704444E9, 0.0, 2022-10-29 14:09:21.704
186.0, -5209.192581331823, -12374.835286583751, -3297.890529676806, 18603.72655043425, 0.0, 0.0, 0.0, 0.0, 0.0, 0.0, 0.0, 0.0, 1.667045361704444E9, 0.0, 2022-10-29 14:09:21.704
187.0, -4932.791535206605, -11963.053601962514, -3183.2401566351764, 18182.058440280147, 0.0, 0.0, 0.0, 0.0, 0.0, 0.0, 0.0, 0.0, 1.6670453617051735E9, 0.0, 2022-10-29 14:09:21.705
187.0, -5164.468987711705, -11598.009447087534, -2760.908214238938, 18316.552722486667, 0.0, 0.0, 0.0, 0.0, 0.0, 0.0, 0.0, 0.0, 1.6670453617051735E9, 0.0, 2022-10-29 14:09:21.705
188.0, -5266.093289207667, -12084.764906120487, -2505.1196267195046, 18466.262787662912, 0.0, 0.0, 0.0, 0.0, 0.0, 0.0, 0.0, 0.0, 1.6670453617187943E9, 0.0, 2022-10-29 14:09:21.718
188.0, -5196.387163883541, -12363.465990718454, -2308.589753997978, 18611.54481129162, 0.0, 0.0, 0.0, 0.0, 0.0, 0.0, 0.0, 0.0, 1.6670453617187943E9, 0.0, 2022-10-29 14:09:21.718
189.0, -4937.948857245501, -11968.061328003183, -2214.310616014991, 18187.281210568268, 0.0, 0.0, 0.0, 0.0, 0.0, 0.0, 0.0, 0.0, 1.6670453617343807E9, 0.0, 2022-10-29 14:09:21.734
189.0, -5161.9819542411715, -11601.495033846237, -1759.9127713986672, 18322.123303470667, 0.0, 0.0, 0.0, 0.0, 0.0, 0.0, 0.0, 0.0, 1.6670453617343807E9, 0.0, 2022-10-29 14:09:21.734
190.0, -5271.55728304293, -11112.751817986835, -1533.6245147297159, 18456.499778828584, 0.0, 0.0, 0.0, 0.0, 0.0, 0.0, 0.0, 0.0, 1.66704536173515E9, 0.0, 2022-10-29 14:09:21.735
190.0, -5217.670934531372, -11398.525053401012, -1342.6409136424772, 18588.422879815567, 0.0, 0.0, 0.0, 0.0, 0.0, 0.0, 0.0, 0.0, 1.66704536173515E9, 0.0, 2022-10-29 14:09:21.735
191.0, -4923.011696822476, -10962.837928263005, -1211.5985590950586, 18186.744534924626, 0.0, 0.0, 0.0, 0.0, 0.0, 0.0, 0.0, 0.0, 1.667045361748708E9, 0.0, 2022-10-29 14:09:21.748
191.0, -5154.427356330678, -10612.15872911783, -772.6539810956456, 18339.186597018503, 0.0, 0.0, 0.0, 0.0, 0.0, 0.0, 0.0, 0.0, 1.667045361748708E9, 0.0, 2022-10-29 14:09:21.748
192.0, -5271.5161441434175, -10132.368833752349, -551.0854781707749, 18448.16541177733, 0.0, 0.0, 0.0, 0.0, 0.0, 0.0, 0.0, 0.0, 1.6670453617808E9, 0.0, 2022-10-29 14:09:21.780
192.0, -5231.059776372742, -10417.207094177604, -373.62909522326663, 18577.751075292006, 0.0, 0.0, 0.0, 0.0, 0.0, 0.0, 0.0, 0.0, 1.6670453617808E9, 0.0, 2022-10-29 14:09:21.780
193.0, -4917.07273569284, -9980.222223754972, -220.42783343838528, 18180.81492354488, 0.0, 0.0, 0.0, 0.0, 0.0, 0.0, 0.0, 0.0, 1.6670453617815604E9, 0.0, 2022-10-29 14:09:21.781
193.0, -5141.060953889042, -9631.824363582768, 211.44085384486243, 18337.632668586913, 0.0, 0.0, 0.0, 0.0, 0.0, 0.0, 0.0, 0.0, 1.6670453617815604E9, 0.0, 2022-10-29 14:09:21.781
194.0, -5270.962638949975, -9152.307480914053, 419.40734063088894, 18450.441140900366, 0.0, 0.0, 0.0, 0.0, 0.0, 0.0, 0.0, 0.0, 1.66704536178224E9, 0.0, 2022-10-29 14:09:21.782
194.0, -5236.882800603751, -9455.366533923429, 582.4987678485923, 18586.253737841267, 0.0, 0.0, 0.0, 0.0, 0.0, 0.0, 0.0, 0.0, 1.66704536178224E9, 0.0, 2022-10-29 14:09:21.782
195.0, -4899.5625241003, -8984.666465400252, 790.0145966899581, 18218.391568349674, 0.0, 0.0, 0.0, 0.0, 0.0, 0.0, 0.0, 0.0, 1.6670453617829635E9, 0.0, 2022-10-29 14:09:21.782
195.0, -5147.134551417083, -8641.50820506597, 1196.4370046746917, 18341.995261885226, 0.0, 0.0, 0.0, 0.0, 0.0, 0.0, 0.0, 0.0, 1.6670453617829635E9, 0.0, 2022-10-29 14:09:21.782
196.0, -5279.22781785205, -8179.763326986693, 1395.880259461701, 18444.87429981632, 0.0, 0.0, 0.0, 0.0, 0.0, 0.0, 0.0, 0.0, 1.6670453617937353E9, 0.0, 2022-10-29 14:09:21.793
196.0, -5263.4959286884405, -8491.09877859801, 1538.6939491196536, 18568.22929000482, 0.0, 0.0, 0.0, 0.0, 0.0, 0.0, 0.0, 0.0, 1.6670453617937353E9, 0.0, 2022-10-29 14:09:21.793
197.0, -4883.192981994245, -8964.785157235805, 1797.9961726474576, 18234.72558140615, 0.0, 0.0, 0.0, 0.0, 0.0, 0.0, 0.0, 0.0, 1.6670453618087227E9, 0.0, 2022-10-29 14:09:21.808
197.0, -5131.501769602299, -8636.866989220958, 2192.069430978503, 18376.037701231893, 0.0, 0.0, 0.0, 0.0, 0.0, 0.0, 0.0, 0.0, 1.6670453618087227E9, 0.0, 2022-10-29 14:09:21.808
198.0, -5283.02007640712, -8178.787213098258, 2373.291893181391, 18456.96352642309, 0.0, 0.0, 0.0, 0.0, 0.0, 0.0, 0.0, 0.0, 1.6670453618243208E9, 0.0, 2022-10-29 14:09:21.824
198.0, -5261.741915609222, -8494.846158353612, 2512.208607085515, 18553.249120732304, 0.0, 0.0, 0.0, 0.0, 0.0, 0.0, 0.0, 0.0, 1.6670453618243208E9, 0.0, 2022-10-29 14:09:21.824
199.0, -4845.70422483841, -8938.789112643804, 2818.569991755765, 18262.593445925973, 0.0, 0.0, 0.0, 0.0, 0.0, 0.0, 0.0, 0.0, 1.6670453618251042E9, 0.0, 2022-10-29 14:09:21.825
199.0, -5124.250103588216, -8630.12394960085, 3170.244004289154, 18372.026658529416, 0.0, 0.0, 0.0, 0.0, 0.0, 0.0, 0.0, 0.0, 1.6670453618251042E9, 0.0, 2022-10-29 14:09:21.825
200.0, -5291.464770507067, -8183.3498910441995, 3343.291045188904, 18446.92376499204, 0.0, 0.0, 0.0, 0.0, 0.0, 0.0, 0.0, 0.0, 1.667045361839378E9, 0.0, 2022-10-29 14:09:21.839
200.0, -5298.364885925315, -8535.506350671872, 3449.169482884463, 18526.22273370251, 0.0, 0.0, 0.0, 0.0, 0.0, 0.0, 0.0, 0.0, 1.667045361839378E9, 0.0, 2022-10-29 14:09:21.839
0.0, 2077.8846754813567, 1898.9772113510408, 2912.4676599432714, 1644.2825445686467, 0.0, 0.0, 0.0, 0.0, 0.0, 0.0, 0.0, 0.0, 1.6670453618400447E9, 0.0, 2022-10-29 14:09:21.840
101.0, 1783.7434139163233, 2198.6404352006502, 3242.846682128962, 1745.48049746966, 0.0, 0.0, 0.0, 0.0, 0.0, 0.0, 0.0, 0.0, 1.6670453618536918E9, 0.0, 2022-10-29 14:09:21.853
101.0, 1538.5368733215146, 2571.401873634197, 3286.7661972586066, 1746.7651531044394, 0.0, 0.0, 0.0, 0.0, 0.0, 0.0, 0.0, 0.0, 1.6670453618536918E9, 0.0, 2022-10-29 14:09:21.853
102.0, 1477.2847918472253, 2185.6985114039853, 3334.896839738358, 1788.0854377648793, 0.0, 0.0, 0.0, 0.0, 0.0, 0.0, 0.0, 0.0, 1.667045361869412E9, 0.0, 2022-10-29 14:09:21.869
102.0, 1087.465669715777, 1894.089162108954, 2885.9461594074965, 1634.5980736333877, 0.0, 0.0, 0.0, 0.0, 0.0, 0.0, 0.0, 0.0, 1.667045361869412E9, 0.0, 2022-10-29 14:09:21.869
103.0, 810.5840464462526, 2203.771577939857, 3243.682549769059, 1751.3427906502038, 0.0, 0.0, 0.0, 0.0, 0.0, 0.0, 0.0, 0.0, 1.6670453618701117E9, 0.0, 2022-10-29 14:09:21.870
103.0, 557.6433927430771, 2569.1130548613146, 3292.7369475378655, 1751.4867767984979, 0.0, 0.0, 0.0, 0.0, 0.0, 0.0, 0.0, 0.0, 1.6670453618701117E9, 0.0, 2022-10-29 14:09:21.870
104.0, 481.5850473442115, 2171.786083568819, 3321.09847885184, 1779.6800126144662, 0.0, 0.0, 0.0, 0.0, 0.0, 0.0, 0.0, 0.0, 1.6670453618836815E9, 0.0, 2022-10-29 14:09:21.883
104.0, 117.93774510268122, 1900.0505626383238, 2912.3367634448223, 1637.0458381543867, 0.0, 0.0, 0.0, 0.0, 0.0, 0.0, 0.0, 0.0, 1.6670453618836815E9, 0.0, 2022-10-29 14:09:21.883
105.0, -171.81287391437218, 2202.9525398495607, 3258.105473948177, 1744.538042680826, 0.0, 0.0, 0.0, 0.0, 0.0, 0.0, 0.0, 0.0, 1.6670453618995335E9, 0.0, 2022-10-29 14:09:21.899
105.0, -426.49258109694347, 2567.21692558378, 3288.8680210337043, 1745.250493622385, 0.0, 0.0, 0.0, 0.0, 0.0, 0.0, 0.0, 0.0, 1.6670453618995335E9, 0.0, 2022-10-29 14:09:21.899
106.0, -470.78421627217904, 2197.48667606432, 3358.3011336610653, 1803.852855978068, 0.0, 0.0, 0.0, 0.0, 0.0, 0.0, 0.0, 0.0, 1.667045361900118E9, 0.0, 2022-10-29 14:09:21.900
106.0, -865.9775746399537, 1905.3761801752262, 2905.1430658800527, 1628.0270694112405, 0.0, 0.0, 0.0, 0.0, 0.0, 0.0, 0.0, 0.0, 1.667045361900118E9, 0.0, 2022-10-29 14:09:21.900
107.0, -1203.06784729613, 2155.287514914293, 3178.6456895396113, 1683.1644144579768, 0.0, 0.0, 0.0, 0.0, 0.0, 0.0, 0.0, 0.0, 1.6670453619137375E9, 0.0, 2022-10-29 14:09:21.913
107.0, -1412.1319947191514, 2562.7552249366418, 3286.12106451625, 1730.57325624628, 0.0, 0.0, 0.0, 0.0, 0.0, 0.0, 0.0, 0.0, 1.6670453619137375E9, 0.0, 2022-10-29 14:09:21.913
108.0, -1411.243768479675, 2235.356903015636, 3420.4190019750968, 1819.4127097437158, 0.0, 0.0, 0.0, 0.0, 0.0, 0.0, 0.0, 0.0, 1.667045361929415E9, 0.0, 2022-10-29 14:09:21.929
108.0, -1848.3053068513982, 1895.7197584896348, 3875.134738087654, 1630.385076333303, 0.0, 0.0, 0.0, 0.0, 0.0, 0.0, 0.0, 0.0, 1.667045361929415E9, 0.0, 2022-10-29 14:09:21.929
109.0, -2187.4001658838242, 2152.116079751868, 4153.615168588236, 1691.5698396083899, 0.0, 0.0, 0.0, 0.0, 0.0, 0.0, 0.0, 0.0, 1.6670453619300532E9, 0.0, 2022-10-29 14:09:21.930
109.0, -2379.189715411514, 2570.1976258484647, 4272.463579330128, 1741.8097856631503, 0.0, 0.0, 0.0, 0.0, 0.0, 0.0, 0.0, 0.0, 1.6670453619300532E9, 0.0, 2022-10-29 14:09:21.930
110.0, -2385.5774645358324, 2226.878549816087, 4392.041270563379, 1835.8065611994825, 0.0, 0.0, 0.0, 0.0, 0.0, 0.0, 0.0, 0.0, 1.667045361943712E9, 0.0, 2022-10-29 14:09:21.943
110.0, -2829.2474061292596, 1904.052255590912, 4868.8859947137535, 1638.9887161813676, 0.0, 0.0, 0.0, 0.0, 0.0, 0.0, 0.0, 0.0, 1.667045361943712E9, 0.0, 2022-10-29 14:09:21.943
111.0, -3165.6196179939434, 2157.2434825911187, 5144.961669542827, 1706.9913170756772, 0.0, 0.0, 0.0, 0.0, 0.0, 0.0, 0.0, 0.0, 1.6670453619593387E9, 0.0, 2022-10-29 14:09:21.959
111.0, -3368.228698093444, 2565.1001422088593, 5247.926725172903, 1743.7751030898653, 0.0, 0.0, 0.0, 0.0, 0.0, 0.0, 0.0, 0.0, 1.6670453619593387E9, 0.0, 2022-10-29 14:09:21.959
112.0, -3378.143172875978, 2226.010893026367, 5379.902184759267, 1845.7416054317728, 0.0, 0.0, 0.0, 0.0, 0.0, 0.0, 0.0, 0.0, 1.6670453619601035E9, 0.0, 2022-10-29 14:09:21.960
112.0, -3806.079355355818, 1906.6851451597176, 5851.660644969903, 1655.0048377416097, 0.0, 0.0, 0.0, 0.0, 0.0, 0.0, 0.0, 0.0, 1.6670453619601035E9, 0.0, 2022-10-29 14:09:21.960
113.0, -4134.8184314109385, 2175.535333274398, 6133.4733263310045, 1703.7768730637617, 0.0, 0.0, 0.0, 0.0, 0.0, 0.0, 0.0, 0.0, 1.6670453619736416E9, 0.0, 2022-10-29 14:09:21.973
113.0, -4353.830712716095, 2561.1059290561825, 6225.955442385282, 1743.4665613435209, 0.0, 0.0, 0.0, 0.0, 0.0, 0.0, 0.0, 0.0, 1.6670453619736416E9, 0.0, 2022-10-29 14:09:21.973
114.0, -4433.034313977696, 2149.327984334901, 6222.776527422946, 1748.1620057378896, 0.0, 0.0, 0.0, 0.0, 0.0, 0.0, 0.0, 0.0, 1.66704536198937E9, 0.0, 2022-10-29 14:09:21.989
114.0, -4735.79978484055, 1943.235187426675, 5922.778582527302, 1677.0646376302466, 0.0, 0.0, 0.0, 0.0, 0.0, 0.0, 0.0, 0.0, 1.66704536198937E9, 0.0, 2022-10-29 14:09:21.989
115.0, -5068.768687745556, 2204.6093155299313, 6206.723006863147, 1744.5586121305823, 0.0, 0.0, 0.0, 0.0, 0.0, 0.0, 0.0, 0.0, 1.6670453619901068E9, 0.0, 2022-10-29 14:09:21.990
115.0, -5350.383154409006, 2544.0744246579707, 6204.56882448867, 1725.530001156032, 0.0, 0.0, 0.0, 0.0, 0.0, 0.0, 0.0, 0.0, 1.6670453619901068E9, 0.0, 2022-10-29 14:09:21.990
116.0, -5436.797282785177, 2127.980635387823, 6197.317158474587, 1720.8364267116413, 0.0, 0.0, 0.0, 0.0, 0.0, 0.0, 0.0, 0.0, 1.6670453620037248E9, 0.0, 2022-10-29 14:09:22.003
116.0, -5704.475012263749, 1952.8093313132413, 5935.825223522726, 1685.948769974988, 0.0, 0.0, 0.0, 0.0, 0.0, 0.0, 0.0, 0.0, 1.6670453620037248E9, 0.0, 2022-10-29 14:09:22.003
117.0, -6036.6024376787245, 2212.077895741444, 6215.685677106958, 1760.4176578926854, 0.0, 0.0, 0.0, 0.0, 0.0, 0.0, 0.0, 0.0, 1.6670453620193498E9, 0.0, 2022-10-29 14:09:22.019
117.0, -6344.044653436169, 2532.914563190192, 6176.476565971505, 1709.0725714010186, 0.0, 0.0, 0.0, 0.0, 0.0, 0.0, 0.0, 0.0, 1.6670453620193498E9, 0.0, 2022-10-29 14:09:22.019
118.0, -6426.240174662322, 2132.1693233381957, 6190.353464757092, 1699.3899704157375, 0.0, 0.0, 0.0, 0.0, 0.0, 0.0, 0.0, 0.0, 1.667045362020112E9, 0.0, 2022-10-29 14:09:22.020
118.0, -6660.442059637513, 1977.440312421415, 5958.492757154163, 1701.6825290885754, 0.0, 0.0, 0.0, 0.0, 0.0, 0.0, 0.0, 0.0, 1.667045362020112E9, 0.0, 2022-10-29 14:09:22.020
119.0, -7015.917680475861, 2222.040989223402, 6200.744776783977, 1775.859704809729, 0.0, 0.0, 0.0, 0.0, 0.0, 0.0, 0.0, 0.0, 1.667045362033718E9, 0.0, 2022-10-29 14:09:22.033
119.0, -7321.284251757897, 2534.1861291751266, 6177.953826454002, 1719.9033216726966, 0.0, 0.0, 0.0, 0.0, 0.0, 0.0, 0.0, 0.0, 1.667045362033718E9, 0.0, 2022-10-29 14:09:22.033
120.0, -7420.425259683281, 2103.6451063761488, 6173.989532500971, 1710.044945389498, 0.0, 0.0, 0.0, 0.0, 0.0, 0.0, 0.0, 0.0, 1.6670453620493715E9, 0.0, 2022-10-29 14:09:22.049
120.0, -7646.990268948954, 1968.4720323276706, 5962.488840256818, 1715.9278080197982, 0.0, 0.0, 0.0, 0.0, 0.0, 0.0, 0.0, 0.0, 1.6670453620493715E9, 0.0, 2022-10-29 14:09:22.049
121.0, -7994.881372677162, 2227.80417505512, 6216.199913350865, 1773.9224366326816, 0.0, 0.0, 0.0, 0.0, 0.0, 0.0, 0.0, 0.0, 1.6670453620500996E9, 0.0, 2022-10-29 14:09:22.050
121.0, -8304.739563805982, 2531.7888533035293, 6181.542260461487, 1709.2782658985816, 0.0, 0.0, 0.0, 0.0, 0.0, 0.0, 0.0, 0.0, 1.6670453620500996E9, 0.0, 2022-10-29 14:09:22.050
122.0, -8414.131637509912, 2100.0323630189523, 6156.5335494577885, 1682.3509862176143, 0.0, 0.0, 0.0, 0.0, 0.0, 0.0, 0.0, 0.0, 1.6670453620637515E9, 0.0, 2022-10-29 14:09:22.063
122.0, -8614.087258590851, 1990.6309395651333, 5971.219636703376, 1710.3553570858203, 0.0, 0.0, 0.0, 0.0, 0.0, 0.0, 0.0, 0.0, 1.6670453620637515E9, 0.0, 2022-10-29 14:09:22.063
123.0, -8970.995261112228, 2235.702843761537, 6228.962321949657, 1763.3235601582564, 0.0, 0.0, 0.0, 0.0, 0.0, 0.0, 0.0, 0.0, 1.6670453620794451E9, 0.0, 2022-10-29 14:09:22.079
123.0, -9284.671890095808, 2533.9318159781396, 6178.8065236439, 1703.7207745644264, 0.0, 0.0, 0.0, 0.0, 0.0, 0.0, 0.0, 0.0, 1.6670453620794451E9, 0.0, 2022-10-29 14:09:22.079
124.0, -9391.087003435008, 2102.5979343885556, 6162.852110432927, 1668.1393663859926, 0.0, 0.0, 0.0, 0.0, 0.0, 0.0, 0.0, 0.0, 1.6670453620801704E9, 0.0, 2022-10-29 14:09:22.080
124.0, -9578.6224167631, 2000.040527853649, 5982.646901017986, 1727.0801896876656, 0.0, 0.0, 0.0, 0.0, 0.0, 0.0, 0.0, 0.0, 1.6670453620801704E9, 0.0, 2022-10-29 14:09:22.080
125.0, -9951.237999098375, 2231.1626052153297, 6226.68659282662, 1780.7402742519043, 0.0, 0.0, 0.0, 0.0, 0.0, 0.0, 0.0, 0.0, 1.6670453620937617E9, 0.0, 2022-10-29 14:09:22.093
125.0, -10276.224085547961, 2526.4894150663167, 6173.142445161007, 1702.52026667865, 0.0, 0.0, 0.0, 0.0, 0.0, 0.0, 0.0, 0.0, 1.6670453620937617E9, 0.0, 2022-10-29 14:09:22.093
126.0, -10331.787779189646, 2135.808245995082, 6225.686169588473, 1704.8520943010226, 0.0, 0.0, 0.0, 0.0, 0.0, 0.0, 0.0, 0.0, 1.6670453621094575E9, 0.0, 2022-10-29 14:09:22.109
126.0, -10569.467771123629, 1987.0069765080698, 5984.221398899332, 1718.8467999352142, 0.0, 0.0, 0.0, 0.0, 0.0, 0.0, 0.0, 0.0, 1.6670453621094575E9, 0.0, 2022-10-29 14:09:22.109
127.0, -10952.053926740773, 2214.247037715744, 6189.721421664581, 1744.4464151319116, 0.0, 0.0, 0.0, 0.0, 0.0, 0.0, 0.0, 0.0, 1.6670453621101892E9, 0.0, 2022-10-29 14:09:22.110
127.0, -11249.847200612538, 2528.6174181411043, 6164.6379126617685, 1712.5749877095222, 0.0, 0.0, 0.0, 0.0, 0.0, 0.0, 0.0, 0.0, 1.6670453621101892E9, 0.0, 2022-10-29 14:09:22.110
128.0, -11333.433964622207, 2111.5699543822557, 6200.344607488718, 1698.7897164728492, 0.0, 0.0, 0.0, 0.0, 0.0, 0.0, 0.0, 0.0, 1.667045362123756E9, 0.0, 2022-10-29 14:09:22.123
128.0, -11525.191725000273, 2012.7599276029505, 6018.505061793141, 1756.3430368909612, 0.0, 0.0, 0.0, 0.0, 0.0, 0.0, 0.0, 0.0, 1.667045362123756E9, 0.0, 2022-10-29 14:09:22.123
129.0, -11935.071670494042, 2213.974025018979, 6180.723222371191, 1765.8760418780148, 0.0, 0.0, 0.0, 0.0, 0.0, 0.0, 0.0, 0.0, 1.6670453621395104E9, 0.0, 2022-10-29 14:09:22.139
129.0, -12240.22880737856, 2517.199503576383, 6150.9012601245195, 1707.3877464709803, 0.0, 0.0, 0.0, 0.0, 0.0, 0.0, 0.0, 0.0, 1.6670453621395104E9, 0.0, 2022-10-29 14:09:22.139
130.0, -12331.119596001692, 2094.587068683468, 6181.603968810756, 1676.432594537735, 0.0, 0.0, 0.0, 0.0, 0.0, 0.0, 0.0, 0.0, 1.6670453621401997E9, 0.0, 2022-10-29 14:09:22.140
130.0, -12488.724589984398, 2019.9143562181853, 6025.981121804565, 1758.3251838674769, 0.0, 0.0, 0.0, 0.0, 0.0, 0.0, 0.0, 0.0, 1.6670453621401997E9, 0.0, 2022-10-29 14:09:22.140
131.0, -12906.768737081438, 2217.6802658750676, 6191.63999034185, 1760.4008283428848, 0.0, 0.0, 0.0, 0.0, 0.0, 0.0, 0.0, 0.0, 1.6670453621536305E9, 0.0, 2022-10-29 14:09:22.153
131.0, -13235.835054382682, 2508.9343246743083, 6137.02623128891, 1691.1678003631532, 0.0, 0.0, 0.0, 0.0, 0.0, 0.0, 0.0, 0.0, 1.6670453621536305E9, 0.0, 2022-10-29 14:09:22.153
132.0, -13334.602072312497, 2085.9067608863115, 6168.417081566993, 1658.2379812533036, 0.0, 0.0, 0.0, 0.0, 0.0, 0.0, 0.0, 0.0, 1.6670453621693609E9, 0.0, 2022-10-29 14:09:22.169
132.0, -13459.325865884777, 2042.783844447229, 6048.573857436888, 1773.6475539859384, 0.0, 0.0, 0.0, 0.0, 0.0, 0.0, 0.0, 0.0, 1.6670453621693609E9, 0.0, 2022-10-29 14:09:22.169
133.0, -13897.673929841258, 2220.365514043253, 6182.34633895196, 1751.4680772987194, 0.0, 0.0, 0.0, 0.0, 0.0, 0.0, 0.0, 0.0, 1.667045362170118E9, 0.0, 2022-10-29 14:09:22.170
133.0, -14207.909850865602, 2512.943497426808, 6140.059290152974, 1696.2783736526035, 0.0, 0.0, 0.0, 0.0, 0.0, 0.0, 0.0, 0.0, 1.667045362170118E9, 0.0, 2022-10-29 14:09:22.170
134.0, -14308.602917272598, 2082.2304392298684, 6153.139590248, 1657.9817981063388, 0.0, 0.0, 0.0, 0.0, 0.0, 0.0, 0.0, 0.0, 1.667045362183632E9, 0.0, 2022-10-29 14:09:22.183
134.0, -14425.49910023762, 2042.0919629554264, 6054.131348771043, 1785.4675077958964, 0.0, 0.0, 0.0, 0.0, 0.0, 0.0, 0.0, 0.0, 1.667045362183632E9, 0.0, 2022-10-29 14:09:22.183
135.0, -14866.031265768223, 2212.728638333734, 6175.449963433668, 1768.202259650454, 0.0, 0.0, 0.0, 0.0, 0.0, 0.0, 0.0, 0.0, 1.667045362199777E9, 0.0, 2022-10-29 14:09:22.199
135.0, -15194.431880877353, 2512.457310432568, 6134.520498318598, 1693.280843838118, 0.0, 0.0, 0.0, 0.0, 0.0, 0.0, 0.0, 0.0, 1.667045362199777E9, 0.0, 2022-10-29 14:09:22.199
136.0, -15311.943277385086, 2069.4063222818077, 6154.291479434352, 1632.0811209632084, 0.0, 0.0, 0.0, 0.0, 0.0, 0.0, 0.0, 0.0, 1.6670453622143517E9, 0.0, 2022-10-29 14:09:22.214
136.0, -15390.66630150238, 2071.47822685726, 6083.81867461931, 1806.192163400352, 0.0, 0.0, 0.0, 0.0, 0.0, 0.0, 0.0, 0.0, 1.6670453622143517E9, 0.0, 2022-10-29 14:09:22.214
137.0, -15846.457258852199, 2227.1964413123205, 6187.305446293205, 1789.2784658507444, 0.0, 0.0, 0.0, 0.0, 0.0, 0.0, 0.0, 0.0, 1.6670453622150884E9, 0.0, 2022-10-29 14:09:22.215
137.0, -16199.817966265604, 2484.3762716152705, 6108.778766923584, 1672.6197665329091, 0.0, 0.0, 0.0, 0.0, 0.0, 0.0, 0.0, 0.0, 1.6670453622150884E9, 0.0, 2022-10-29 14:09:22.215
138.0, -16282.881144281477, 2079.4086847133003, 6170.874195837881, 1634.3456303863786, 0.0, 0.0, 0.0, 0.0, 0.0, 0.0, 0.0, 0.0, 1.6670453622294893E9, 0.0, 2022-10-29 14:09:22.229
138.0, -16367.632887127344, 2078.232486177236, 6085.711063996889, 1818.1467536087148, 0.0, 0.0, 0.0, 0.0, 0.0, 0.0, 0.0, 0.0, 1.6670453622294893E9, 0.0, 2022-10-29 14:09:22.229
139.0, -16824.269061867148, 2224.9076225394383, 6189.511987267062, 1788.7268306072801, 0.0, 0.0, 0.0, 0.0, 0.0, 0.0, 0.0, 0.0, 1.6670453622300878E9, 0.0, 2022-10-29 14:09:22.230
139.0, -17157.722281816415, 2505.6974412626587, 6142.931533318944, 1687.8879081020132, 0.0, 0.0, 0.0, 0.0, 0.0, 0.0, 0.0, 0.0, 1.6670453622300878E9, 0.0, 2022-10-29 14:09:22.230
140.0, -17276.87175450474, 2043.2139329421334, 6136.955173189752, 1618.3706477256492, 0.0, 0.0, 0.0, 0.0, 0.0, 0.0, 0.0, 0.0, 1.6670453622436876E9, 0.0, 2022-10-29 14:09:22.243
140.0, -17333.28253548639, 2082.7820744733326, 6102.0675164530985, 1831.8516169963405, 0.0, 0.0, 0.0, 0.0, 0.0, 0.0, 0.0, 0.0, 1.6670453622436876E9, 0.0, 2022-10-29 14:09:22.243
141.0, -17801.837771384977, 2232.2135171028785, 6186.241444755811, 1799.316357331816, 0.0, 0.0, 0.0, 0.0, 0.0, 0.0, 0.0, 0.0, 1.6670453622594109E9, 0.0, 2022-10-29 14:09:22.259
141.0, -18142.83436954487, 2504.824174623005, 6131.23873610748, 1688.7050762423314, 0.0, 0.0, 0.0, 0.0, 0.0, 0.0, 0.0, 0.0, 1.6670453622594109E9, 0.0, 2022-10-29 14:09:22.259
142.0, -18264.310060005635, 2039.999488930218, 6133.585523329675, 1587.5557420407422, 0.0, 0.0, 0.0, 0.0, 0.0, 0.0, 0.0, 0.0, 1.667045362260141E9, 0.0, 2022-10-29 14:09:22.260
142.0, -18323.9857736486, 2081.4600198389962, 6092.751425663475, 1815.0538563453592, 0.0, 0.0, 0.0, 0.0, 0.0, 0.0, 0.0, 0.0, 1.667045362260141E9, 0.0, 2022-10-29 14:09:22.260
143.0, -18773.983625967056, 2241.1649676468223, 6205.240136530716, 1803.0955262370408, 0.0, 0.0, 0.0, 0.0, 0.0, 0.0, 0.0, 0.0, 1.6670453622737265E9, 0.0, 2022-10-29 14:09:22.273
143.0, -19121.779362246394, 2501.8490842082538, 6135.2217295602895, 1690.532017370686, 0.0, 0.0, 0.0, 0.0, 0.0, 0.0, 0.0, 0.0, 1.6670453622737265E9, 0.0, 2022-10-29 14:09:22.273
144.0, -19242.04706502147, 2054.411193409469, 6136.143614899367, 1623.1203206693754, 0.0, 0.0, 0.0, 0.0, 0.0, 0.0, 0.0, 0.0, 1.667045362289352E9, 0.0, 2022-10-29 14:09:22.289
144.0, -19287.092290037777, 2083.563713564072, 6107.643707287032, 1828.130416540429, 0.0, 0.0, 0.0, 0.0, 0.0, 0.0, 0.0, 0.0, 1.667045362289352E9, 0.0, 2022-10-29 14:09:22.289
145.0, -19767.62642549444, 2226.6410661689006, 6181.2449384150095, 1783.481620919425, 0.0, 0.0, 0.0, 0.0, 0.0, 0.0, 0.0, 0.0, 1.6670453622902863E9, 0.0, 2022-10-29 14:09:22.290
145.0, -20114.853696980514, 2492.9986109631136, 6116.013603387866, 1676.468123587314, 0.0, 0.0, 0.0, 0.0, 0.0, 0.0, 0.0, 0.0, 1.6670453622902863E9, 0.0, 2022-10-29 14:09:22.290
146.0, -20232.70916428417, 2031.8278075270355, 6106.701252498198, 1614.9879082157277, 0.0, 0.0, 0.0, 0.0, 0.0, 0.0, 0.0, 0.0, 1.6670453623036616E9, 0.0, 2022-10-29 14:09:22.303
146.0, -20266.71420463128, 2078.9243676690385, 6111.664099739399, 1821.9651914634742, 0.0, 0.0, 0.0, 0.0, 0.0, 0.0, 0.0, 0.0, 1.6670453623036616E9, 0.0, 2022-10-29 14:09:22.303
147.0, -20754.7468394991, 2218.553532514721, 6179.475965735968, 1763.8751954017207, 0.0, 0.0, 0.0, 0.0, 0.0, 0.0, 0.0, 0.0, 1.6670453623198817E9, 0.0, 2022-10-29 14:09:22.319
147.0, -21095.762137158774, 2486.3883377914317, 6112.393380230758, 1675.0263921543956, 0.0, 0.0, 0.0, 0.0, 0.0, 0.0, 0.0, 0.0, 1.6670453623198817E9, 0.0, 2022-10-29 14:09:22.319
148.0, -21197.334080055356, 2059.1085077538155, 6129.905461773276, 1631.6061536688358, 0.0, 0.0, 0.0, 0.0, 0.0, 0.0, 0.0, 0.0, 1.6670453623343432E9, 0.0, 2022-10-29 14:09:22.334
148.0, -21237.11352593405, 2097.898750094231, 6133.9632532252, 1833.7066073743626, 0.0, 0.0, 0.0, 0.0, 0.0, 0.0, 0.0, 0.0, 1.6670453623343432E9, 0.0, 2022-10-29 14:09:22.334
149.0, -20761.67126426706, 2213.5925552234985, 6164.551894962788, 1765.5787198315375, 0.0, 0.0, 0.0, 0.0, 0.0, 0.0, 0.0, 0.0, 1.6670453623351183E9, 0.0, 2022-10-29 14:09:22.335
149.0, -21084.738782039378, 2497.4229126106948, 6127.919574896805, 1686.105845773127, 0.0, 0.0, 0.0, 0.0, 0.0, 0.0, 0.0, 0.0, 1.6670453623351183E9, 0.0, 2022-10-29 14:09:22.335
150.0, -21202.384814945515, 2047.2810741439462, 6135.300267459359, 1624.644329901319, 0.0, 0.0, 0.0, 0.0, 0.0, 0.0, 0.0, 0.0, 1.6670453623494275E9, 0.0, 2022-10-29 14:09:22.349
150.0, -21250.42569982633, 2084.077949807979, 6112.85151797533, 1815.214672043454, 0.0, 0.0, 0.0, 0.0, 0.0, 0.0, 0.0, 0.0, 1.6670453623494275E9, 0.0, 2022-10-29 14:09:22.349
151.0, -21735.645929927472, 2217.169769531116, 6175.147031537257, 1765.849862578325, 0.0, 0.0, 0.0, 0.0, 0.0, 0.0, 0.0, 0.0, 1.6670453623501537E9, 0.0, 2022-10-29 14:09:22.350
151.0, -22075.430800501723, 2493.258534010034, 6118.049978913739, 1681.7133332751691, 0.0, 0.0, 0.0, 0.0, 0.0, 0.0, 0.0, 0.0, 1.6670453623501537E9, 0.0, 2022-10-29 14:09:22.350
152.0, -22176.550215503667, 2054.4560722089373, 6141.377604887355, 1634.4409978352487, 0.0, 0.0, 0.0, 0.0, 0.0, 0.0, 0.0, 0.0, 1.6670453623637483E9, 0.0, 2022-10-29 14:09:22.363
152.0, -22226.584467060864, 2084.5772264520638, 6118.319251710549, 1812.2171422289684, 0.0, 0.0, 0.0, 0.0, 0.0, 0.0, 0.0, 0.0, 1.6670453623637483E9, 0.0, 2022-10-29 14:09:22.363
153.0, -22699.66124200588, 2222.115787222516, 6193.334165021777, 1774.5507398252375, 0.0, 0.0, 0.0, 0.0, 0.0, 0.0, 0.0, 0.0, 1.6670453623794012E9, 0.0, 2022-10-29 14:09:22.379
153.0, -23062.435277607758, 2490.388160794042, 6112.892656874843, 1684.1797972959466, 0.0, 0.0, 0.0, 0.0, 0.0, 0.0, 0.0, 0.0, 1.6670453623794012E9, 0.0, 2022-10-29 14:09:22.379
154.0, -23173.659902289975, 2035.6724246814847, 6112.905746524688, 1612.474695445504, 0.0, 0.0, 0.0, 0.0, 0.0, 0.0, 0.0, 0.0, 1.667045362380192E9, 0.0, 2022-10-29 14:09:22.380
154.0, -23175.202611021698, 2112.0075226770714, 6163.903022320475, 1850.8147797216661, 0.0, 0.0, 0.0, 0.0, 0.0, 0.0, 0.0, 0.0, 1.667045362380192E9, 0.0, 2022-10-29 14:09:22.380
155.0, -22732.08056477178, 2209.5777726210654, 6158.03324934002, 1773.2025058912113, 0.0, 0.0, 0.0, 0.0, 0.0, 0.0, 0.0, 0.0, 1.667045362393696E9, 0.0, 2022-10-29 14:09:22.393
155.0, -23060.65321527887, 2487.7309618755244, 6103.131517990492, 1679.3123175036162, 0.0, 0.0, 0.0, 0.0, 0.0, 0.0, 0.0, 0.0, 1.667045362393696E9, 0.0, 2022-10-29 14:09:22.393
156.0, -23166.683118922636, 2046.426507004071, 6135.479782657232, 1625.3268616432324, 0.0, 0.0, 0.0, 0.0, 0.0, 0.0, 0.0, 0.0, 1.6670453624094265E9, 0.0, 2022-10-29 14:09:22.409
156.0, -23180.316924211103, 2101.2384807546623, 6145.139944242779, 1839.3501164074987, 0.0, 0.0, 0.0, 0.0, 0.0, 0.0, 0.0, 0.0, 1.6670453624094265E9, 0.0, 2022-10-29 14:09:22.409
157.0, -22724.83450860763, 2213.7608507215045, 6154.4709946322255, 1765.088792937342, 0.0, 0.0, 0.0, 0.0, 0.0, 0.0, 0.0, 0.0, 1.6670453624100947E9, 0.0, 2022-10-29 14:09:22.410
157.0, -23072.708782786038, 2479.0787033280358, 6101.1026222645305, 1668.4497780823149, 0.0, 0.0, 0.0, 0.0, 0.0, 0.0, 0.0, 0.0, 1.6670453624100947E9, 0.0, 2022-10-29 14:09:22.410
158.0, -23157.522233981173, 2049.0650064228103, 6143.963745706715, 1604.9350571348332, 0.0, 0.0, 0.0, 0.0, 0.0, 0.0, 0.0, 0.0, 1.6670453624237735E9, 0.0, 2022-10-29 14:09:22.423
158.0, -23183.067620628513, 2109.333494208753, 6138.995288615581, 1840.492655843962, 0.0, 0.0, 0.0, 0.0, 0.0, 0.0, 0.0, 0.0, 1.6670453624237735E9, 0.0, 2022-10-29 14:09:22.423
159.0, -22746.999025695026, 2192.8230208195746, 6116.991587226279, 1755.621236199513, 0.0, 0.0, 0.0, 0.0, 0.0, 0.0, 0.0, 0.0, 1.6670453624394028E9, 0.0, 2022-10-29 14:09:22.439
159.0, -23054.67685514968, 2490.7565409396775, 6119.334634548519, 1682.005045471713, 0.0, 0.0, 0.0, 0.0, 0.0, 0.0, 0.0, 0.0, 1.6670453624394028E9, 0.0, 2022-10-29 14:09:22.439
160.0, -23129.987220557407, 2072.4225515960716, 6181.53104076162, 1648.0355341741815, 0.0, 0.0, 0.0, 0.0, 0.0, 0.0, 0.0, 0.0, 1.6670453624402633E9, 0.0, 2022-10-29 14:09:22.440
160.0, -23171.59921741439, 2119.511631938163, 6158.468947684858, 1854.9193199230358, 0.0, 0.0, 0.0, 0.0, 0.0, 0.0, 0.0, 0.0, 1.6670453624402633E9, 0.0, 2022-10-29 14:09:22.440
161.0, -22769.163542782422, 2175.6886691725813, 6089.694057449698, 1740.2708168313839, 0.0, 0.0, 0.0, 0.0, 0.0, 0.0, 0.0, 0.0, 1.6670453624537556E9, 0.0, 2022-10-29 14:09:22.453
161.0, -23074.810606561136, 2477.9455136414617, 6091.928647673223, 1666.77056300221, 0.0, 0.0, 0.0, 0.0, 0.0, 0.0, 0.0, 0.0, 1.6670453624537556E9, 0.0, 2022-10-29 14:09:22.453
162.0, -23101.47983314516, 2099.587314924225, 6217.026431241073, 1666.903329450637, 0.0, 0.0, 0.0, 0.0, 0.0, 0.0, 0.0, 0.0, 1.667045362469424E9, 0.0, 2022-10-29 14:09:22.469
162.0, -23177.11743979901, 2119.3040674906224, 6156.449401708785, 1846.571863221936, 0.0, 0.0, 0.0, 0.0, 0.0, 0.0, 0.0, 0.0, 1.667045362469424E9, 0.0, 2022-10-29 14:09:22.469
163.0, -22763.286290002055, 2186.7681227913126, 6096.956943163648, 1745.4206590703689, 0.0, 0.0, 0.0, 0.0, 0.0, 0.0, 0.0, 0.0, 1.6670453624701564E9, 0.0, 2022-10-29 14:09:22.470
163.0, -23068.40228798706, 2478.1268987893127, 6096.878405264579, 1665.7607900141738, 0.0, 0.0, 0.0, 0.0, 0.0, 0.0, 0.0, 0.0, 1.6670453624701564E9, 0.0, 2022-10-29 14:09:22.470
164.0, -23115.05006013438, 2069.7335635279305, 6199.989316992927, 1655.7191586331464, 0.0, 0.0, 0.0, 0.0, 0.0, 0.0, 0.0, 0.0, 1.6670453624836855E9, 0.0, 2022-10-29 14:09:22.483
164.0, -23161.75954063097, 2126.411747356411, 6160.841914206743, 1854.3714245795272, 0.0, 0.0, 0.0, 0.0, 0.0, 0.0, 0.0, 0.0, 1.6670453624836855E9, 0.0, 2022-10-29 14:09:22.483
165.0, -22743.287174989004, 2196.4301543268375, 6125.722383672837, 1762.169801021926, 0.0, 0.0, 0.0, 0.0, 0.0, 0.0, 0.0, 0.0, 1.6670453624993284E9, 0.0, 2022-10-29 14:09:22.499
165.0, -23066.72120295698, 2479.306837225333, 6108.911533372011, 1663.8927099863067, 0.0, 0.0, 0.0, 0.0, 0.0, 0.0, 0.0, 0.0, 1.6670453624993284E9, 0.0, 2022-10-29 14:09:22.499
166.0, -23167.002880368847, 2040.2837213268504, 6136.076296700165, 1598.8670694567263, 0.0, 0.0, 0.0, 0.0, 0.0, 0.0, 0.0, 0.0, 1.667045362500271E9, 0.0, 2022-10-29 14:09:22.500
166.0, -23160.581472144928, 2131.2418281491846, 6186.834218898788, 1869.7255838476121, 0.0, 0.0, 0.0, 0.0, 0.0, 0.0, 0.0, 0.0, 1.667045362500271E9, 0.0, 2022-10-29 14:09:22.500
167.0, -22739.55101493327, 2198.100019657053, 6128.7217834373005, 1752.9602973810397, 0.0, 0.0, 0.0, 0.0, 0.0, 0.0, 0.0, 0.0, 1.6670453625137236E9, 0.0, 2022-10-29 14:09:22.513
167.0, -23063.082280300092, 2485.4384032026865, 6107.812002785038, 1677.8107476714067, 0.0, 0.0, 0.0, 0.0, 0.0, 0.0, 0.0, 0.0, 1.6670453625137236E9, 0.0, 2022-10-29 14:09:22.513
168.0, -23182.572083884384, 2025.935595146846, 6117.836804616265, 1577.6263076583855, 0.0, 0.0, 0.0, 0.0, 0.0, 0.0, 0.0, 0.0, 1.667045362529318E9, 0.0, 2022-10-29 14:09:22.529
168.0, -23157.137024285737, 2130.7388116051443, 6178.5802596965805, 1873.3962956541218, 0.0, 0.0, 0.0, 0.0, 0.0, 0.0, 0.0, 0.0, 1.667045362529318E9, 0.0, 2022-10-29 14:09:22.529
169.0, -22728.058302369434, 2206.6924398052506, 6152.316812257748, 1775.764337360859, 0.0, 0.0, 0.0, 0.0, 0.0, 0.0, 0.0, 0.0, 1.6670453625300856E9, 0.0, 2022-10-29 14:09:22.530
169.0, -23079.451822406147, 2478.8056906312704, 6093.4320874554105, 1671.8063382925466, 0.0, 0.0, 0.0, 0.0, 0.0, 0.0, 0.0, 0.0, 1.6670453625300856E9, 0.0, 2022-10-29 14:09:22.530
170.0, -23185.747258946765, 2018.289369687438, 6104.332025876269, 1595.5385584961623, 0.0, 0.0, 0.0, 0.0, 0.0, 0.0, 0.0, 0.0, 1.667045362543781E9, 0.0, 2022-10-29 14:09:22.543
170.0, -23149.18599697994, 2145.1991347838193, 6197.238620575517, 1879.314687334001, 0.0, 0.0, 0.0, 0.0, 0.0, 0.0, 0.0, 0.0, 1.667045362543781E9, 0.0, 2022-10-29 14:09:22.543
171.0, -22722.010884141084, 2213.8562181703746, 6165.013772607315, 1785.6395431938581, 0.0, 0.0, 0.0, 0.0, 0.0, 0.0, 0.0, 0.0, 1.667045362559476E9, 0.0, 2022-10-29 14:09:22.559
171.0, -23088.450021699537, 2463.66470566066, 6074.152903183829, 1659.1897857920267, 0.0, 0.0, 0.0, 0.0, 0.0, 0.0, 0.0, 0.0, 1.667045362559476E9, 0.0, 2022-10-29 14:09:22.559
172.0, -23190.4370934912, 2020.7221746086143, 6103.763561083004, 1583.408192989882, 0.0, 0.0, 0.0, 0.0, 0.0, 0.0, 0.0, 0.0, 1.6670453625600998E9, 0.0, 2022-10-29 14:09:22.560
172.0, -23130.01900970703, 2155.08182041673, 6219.072156516835, 1900.7200047303922, 0.0, 0.0, 0.0, 0.0, 0.0, 0.0, 0.0, 0.0, 1.6670453625600998E9, 0.0, 2022-10-29 14:09:22.560
173.0, -22702.731699869502, 2239.985029210802, 6180.194026527461, 1795.204337330535, 0.0, 0.0, 0.0, 0.0, 0.0, 0.0, 0.0, 0.0, 1.6670453625737083E9, 0.0, 2022-10-29 14:09:22.573
173.0, -23100.30924445903, 2454.95260871388, 6066.444969375152, 1642.1825907435268, 0.0, 0.0, 0.0, 0.0, 0.0, 0.0, 0.0, 0.0, 1.6670453625737083E9, 0.0, 2022-10-29 14:09:22.573
174.0, -23224.040094593074, 1989.282705631107, 6060.2292556487955, 1557.7992280432954, 0.0, 0.0, 0.0, 0.0, 0.0, 0.0, 0.0, 0.0, 1.66704536258934E9, 0.0, 2022-10-29 14:09:22.589
174.0, -23098.888082475867, 2180.2195579688996, 6262.456865952816, 1917.8767957771197, 0.0, 0.0, 0.0, 0.0, 0.0, 0.0, 0.0, 0.0, 1.66704536258934E9, 0.0, 2022-10-29 14:09:22.589
175.0, -22717.358448596206, 2209.71240901947, 6163.545861874707, 1781.7650068397634, 0.0, 0.0, 0.0, 0.0, 0.0, 0.0, 0.0, 0.0, 1.6670453625901015E9, 0.0, 2022-10-29 14:09:22.590
175.0, -23106.06121059088, 2449.2062524319626, 6061.742045180872, 1636.8064845572226, 0.0, 0.0, 0.0, 0.0, 0.0, 0.0, 0.0, 0.0, 1.6670453625901015E9, 0.0, 2022-10-29 14:09:22.590
176.0, -23231.796647101175, 1977.3542947224341, 6050.1109563186765, 1544.030786356423, 0.0, 0.0, 0.0, 0.0, 0.0, 0.0, 0.0, 0.0, 1.6670453626037793E9, 0.0, 2022-10-29 14:09:22.603
176.0, -23090.98193396954, 2188.355710322503, 6266.135057559237, 1926.2523017278872, 0.0, 0.0, 0.0, 0.0, 0.0, 0.0, 0.0, 0.0, 1.6670453626037793E9, 0.0, 2022-10-29 14:09:22.603
177.0, -22741.574300809298, 2212.8931939317845, 6140.790440594312, 1766.077996475622, 0.0, 0.0, 0.0, 0.0, 0.0, 0.0, 0.0, 0.0, 1.6670453626193347E9, 0.0, 2022-10-29 14:09:22.619
177.0, -23154.616331715602, 2405.2942171022296, 5983.871718253475, 1589.4649609681219, 0.0, 0.0, 0.0, 0.0, 0.0, 0.0, 0.0, 0.0, 1.6670453626193347E9, 0.0, 2022-10-29 14:09:22.619
178.0, -23233.90221077623, 1987.8204047484323, 6040.817304928787, 1542.1888856282458, 0.0, 0.0, 0.0, 0.0, 0.0, 0.0, 0.0, 0.0, 1.667045362620196E9, 0.0, 2022-10-29 14:09:22.620
178.0, -23085.31598553667, 2193.2792886141688, 6279.5388590004295, 1928.0942024560645, 0.0, 0.0, 0.0, 0.0, 0.0, 0.0, 0.0, 0.0, 1.667045362620196E9, 0.0, 2022-10-29 14:09:22.620
179.0, -22707.0026656189, 2221.7436671769246, 6161.89469604427, 1782.3820903324522, 0.0, 0.0, 0.0, 0.0, 0.0, 0.0, 0.0, 0.0, 1.6670453626337583E9, 0.0, 2022-10-29 14:09:22.633
179.0, -23103.43206092203, 2451.9438591995277, 6052.7157966378145, 1651.081682688091, 0.0, 0.0, 0.0, 0.0, 0.0, 0.0, 0.0, 0.0, 1.6670453626337583E9, 0.0, 2022-10-29 14:09:22.633
180.0, -23220.457270435523, 1986.7190042114817, 6066.0429301299155, 1545.6501630372368, 0.0, 0.0, 0.0, 0.0, 0.0, 0.0, 0.0, 0.0, 1.6670453626493251E9, 0.0, 2022-10-29 14:09:22.649
180.0, -23077.61927142786, 2207.459119296167, 6285.410501930863, 1924.4421901493333, 0.0, 0.0, 0.0, 0.0, 0.0, 0.0, 0.0, 0.0, 1.6670453626493251E9, 0.0, 2022-10-29 14:09:22.649
181.0, -22717.30235009687, 2224.1091538988985, 6159.744253569748, 1794.5236755385995, 0.0, 0.0, 0.0, 0.0, 0.0, 0.0, 0.0, 0.0, 1.6670453626502779E9, 0.0, 2022-10-29 14:09:22.650
181.0, -23112.19464651821, 2442.3828049628064, 6042.232857062016, 1632.2344568613917, 0.0, 0.0, 0.0, 0.0, 0.0, 0.0, 0.0, 0.0, 1.6670453626502779E9, 0.0, 2022-10-29 14:09:22.650
182.0, -23226.80388066033, 1994.724260066636, 6054.022891672328, 1551.893926013261, 0.0, 0.0, 0.0, 0.0, 0.0, 0.0, 0.0, 0.0, 1.6670453626637297E9, 0.0, 2022-10-29 14:09:22.663
182.0, -23067.48414254794, 2214.4022435639054, 6295.459613111801, 1934.5679692793638, 0.0, 0.0, 0.0, 0.0, 0.0, 0.0, 0.0, 0.0, 1.6670453626637297E9, 0.0, 2022-10-29 14:09:22.663
183.0, -22707.066243918147, 2232.7464528465644, 6177.50503845932, 1791.6046836231835, 0.0, 0.0, 0.0, 0.0, 0.0, 0.0, 0.0, 0.0, 1.6670453626793396E9, 0.0, 2022-10-29 14:09:22.679
183.0, -23099.583703867625, 2451.4614121052437, 6044.581514234189, 1643.699120175559, 0.0, 0.0, 0.0, 0.0, 0.0, 0.0, 0.0, 0.0, 1.6670453626793396E9, 0.0, 2022-10-29 14:09:22.679
184.0, -23226.336393165868, 1991.7940484513529, 6053.76109867543, 1560.1721945651807, 0.0, 0.0, 0.0, 0.0, 0.0, 0.0, 0.0, 0.0, 1.6670453626800735E9, 0.0, 2022-10-29 14:09:22.680
184.0, -23080.484034793917, 2203.4162874440663, 6287.867616201751, 1927.617365211714, 0.0, 0.0, 0.0, 0.0, 0.0, 0.0, 0.0, 0.0, 1.6670453626800735E9, 0.0, 2022-10-29 14:09:22.680
185.0, -22706.322003826965, 2234.2405428788625, 6192.165446285624, 1791.8459071703255, 0.0, 0.0, 0.0, 0.0, 0.0, 0.0, 0.0, 0.0, 1.6670453626936677E9, 0.0, 2022-10-29 14:09:22.693
185.0, -23111.902934321668, 2442.0910927662626, 6032.927985972259, 1634.848646930419, 0.0, 0.0, 0.0, 0.0, 0.0, 0.0, 0.0, 0.0, 1.6670453626936677E9, 0.0, 2022-10-29 14:09:22.693
186.0, -23224.836693283636, 1988.4599276408553, 6056.595942841843, 1566.7936874367297, 0.0, 0.0, 0.0, 0.0, 0.0, 0.0, 0.0, 0.0, 1.6670453627093291E9, 0.0, 2022-10-29 14:09:22.709
186.0, -23106.25194548862, 2188.413678771816, 6256.890024868771, 1911.649862350896, 0.0, 0.0, 0.0, 0.0, 0.0, 0.0, 0.0, 0.0, 1.6670453627093291E9, 0.0, 2022-10-29 14:09:22.709
187.0, -22718.364481684286, 2223.018973061815, 6164.205954216886, 1783.3881234205328, 0.0, 0.0, 0.0, 0.0, 0.0, 0.0, 0.0, 0.0, 1.667045362710024E9, 0.0, 2022-10-29 14:09:22.710
187.0, -23107.71798627125, 2447.8337091482244, 6046.025115617085, 1631.8024984165095, 0.0, 0.0, 0.0, 0.0, 0.0, 0.0, 0.0, 0.0, 1.667045362710024E9, 0.0, 2022-10-29 14:09:22.710
188.0, -23194.345288944896, 2019.6338637215085, 6102.585492596962, 1574.8139028917067, 0.0, 0.0, 0.0, 0.0, 0.0, 0.0, 0.0, 0.0, 1.6670453627236784E9, 0.0, 2022-10-29 14:09:22.723
188.0, -23087.00642031664, 2192.4882997735403, 6282.153049069457, 1930.2614744803868, 0.0, 0.0, 0.0, 0.0, 0.0, 0.0, 0.0, 0.0, 1.6670453627236784E9, 0.0, 2022-10-29 14:09:22.723
189.0, -22761.13771747751, 2179.8231285735965, 6109.483738065232, 1752.1805282402784, 0.0, 0.0, 0.0, 0.0, 0.0, 0.0, 0.0, 0.0, 1.6670453627393577E9, 0.0, 2022-10-29 14:09:22.739
189.0, -23118.623534542043, 2436.5541708818637, 6031.828455385286, 1623.2250378681347, 0.0, 0.0, 0.0, 0.0, 0.0, 0.0, 0.0, 0.0, 1.6670453627393577E9, 0.0, 2022-10-29 14:09:22.739
190.0, -23152.686543338466, 2055.6939790942706, 6158.968224328943, 1632.217627311591, 0.0, 0.0, 0.0, 0.0, 0.0, 0.0, 0.0, 0.0, 1.6670453627400696E9, 0.0, 2022-10-29 14:09:22.740
190.0, -23090.054438780528, 2197.739119311329, 6284.325930943713, 1920.8967649913393, 0.0, 0.0, 0.0, 0.0, 0.0, 0.0, 0.0, 0.0, 1.6670453627400696E9, 0.0, 2022-10-29 14:09:22.740
191.0, -22795.95992596494, 2149.832870828919, 6056.885785088409, 1722.0967729967088, 0.0, 0.0, 0.0, 0.0, 0.0, 0.0, 0.0, 0.0, 1.6670453627537105E9, 0.0, 2022-10-29 14:09:22.753
191.0, -23120.358848121483, 2435.0357714998536, 6031.6339805875905, 1629.4594510942698, 0.0, 0.0, 0.0, 0.0, 0.0, 0.0, 0.0, 0.0, 1.6670453627537105E9, 0.0, 2022-10-29 14:09:22.753
192.0, -23095.550221765414, 2103.897549623158, 6222.696119573899, 1664.433125529904, 0.0, 0.0, 0.0, 0.0, 0.0, 0.0, 0.0, 0.0, 1.6670453627694914E9, 0.0, 2022-10-29 14:09:22.769
192.0, -23097.451960892882, 2186.1566491485573, 6268.820305727422, 1913.5254221786745, 0.0, 0.0, 0.0, 0.0, 0.0, 0.0, 0.0, 0.0, 1.6670453627694914E9, 0.0, 2022-10-29 14:09:22.769
193.0, -22821.533361861948, 2127.4346099942923, 6024.5543499714695, 1696.0371501054615, 0.0, 0.0, 0.0, 0.0, 0.0, 0.0, 0.0, 0.0, 1.667045362770132E9, 0.0, 2022-10-29 14:09:22.770
193.0, -23107.976039368194, 2445.006344781723, 6047.691241047345, 1633.9286315413192, 0.0, 0.0, 0.0, 0.0, 0.0, 0.0, 0.0, 0.0, 1.667045362770132E9, 0.0, 2022-10-29 14:09:22.770
194.0, -23110.126481842715, 2102.7680998365395, 6230.510640531313, 1658.9953109943308, 0.0, 0.0, 0.0, 0.0, 0.0, 0.0, 0.0, 0.0, 1.6670453627836738E9, 0.0, 2022-10-29 14:09:22.783
194.0, -23076.878771236632, 2191.549584884662, 6281.575234526303, 1927.5201278128661, 0.0, 0.0, 0.0, 0.0, 0.0, 0.0, 0.0, 0.0, 1.6670453627836738E9, 0.0, 2022-10-29 14:09:22.783
195.0, -22789.24306564452, 2151.3699697107077, 6062.92385356687, 1727.6019057314843, 0.0, 0.0, 0.0, 0.0, 0.0, 0.0, 0.0, 0.0, 1.6670453627993436E9, 0.0, 2022-10-29 14:09:22.799
195.0, -23120.62064111838, 2435.1217891988344, 6029.193695866503, 1624.0814749579877, 0.0, 0.0, 0.0, 0.0, 0.0, 0.0, 0.0, 0.0, 1.6670453627993436E9, 0.0, 2022-10-29 14:09:22.799
196.0, -23154.8781247125, 2051.16496024793, 6155.394749921281, 1611.67996670492, 0.0, 0.0, 0.0, 0.0, 0.0, 0.0, 0.0, 0.0, 1.667045362800264E9, 0.0, 2022-10-29 14:09:22.800
196.0, -23064.07335378835, 2208.450192784425, 6308.584792006295, 1930.4241601284593, 0.0, 0.0, 0.0, 0.0, 0.0, 0.0, 0.0, 0.0, 1.667045362800264E9, 0.0, 2022-10-29 14:09:22.800
197.0, -22742.333500500303, 2190.818434443325, 6121.5093863727525, 1767.4823289089836, 0.0, 0.0, 0.0, 0.0, 0.0, 0.0, 0.0, 0.0, 1.6670453628136587E9, 0.0, 2022-10-29 14:09:22.813
197.0, -23122.890760391485, 2434.2429127092473, 6027.379844387993, 1623.9636681093834, 0.0, 0.0, 0.0, 0.0, 0.0, 0.0, 0.0, 0.0, 1.6670453628136587E9, 0.0, 2022-10-29 14:09:22.813
198.0, -23203.63520043483, 2000.6426517465152, 6083.768185969908, 1578.1424138522707, 0.0, 0.0, 0.0, 0.0, 0.0, 0.0, 0.0, 0.0, 1.667045362829347E9, 0.0, 2022-10-29 14:09:22.829
198.0, -23070.090852817055, 2214.68460601056, 6302.421436879318, 1943.055672228802, 0.0, 0.0, 0.0, 0.0, 0.0, 0.0, 0.0, 0.0, 1.667045362829347E9, 0.0, 2022-10-29 14:09:22.829
199.0, -22739.416378534865, 2196.892031971365, 6128.880729185417, 1756.1934408927336, 0.0, 0.0, 0.0, 0.0, 0.0, 0.0, 0.0, 0.0, 1.6670453628300536E9, 0.0, 2022-10-29 14:09:22.830
199.0, -23125.721864657942, 2431.800758038182, 6028.602791673504, 1624.9977504471317, 0.0, 0.0, 0.0, 0.0, 0.0, 0.0, 0.0, 0.0, 1.6670453628300536E9, 0.0, 2022-10-29 14:09:22.830
200.0, -23198.54145669518, 1999.281328162644, 6077.990040538367, 1584.4908940270543, 0.0, 0.0, 0.0, 0.0, 0.0, 0.0, 0.0, 0.0, 1.6670453628444018E9, 0.0, 2022-10-29 14:09:22.844
200.0, -23045.325235310476, 2227.239450161811, 6341.742745013442, 1954.0603278484195, 0.0, 0.0, 0.0, 0.0, 0.0, 0.0, 0.0, 0.0, 1.6670453628444018E9, 0.0, 2022-10-29 14:09:22.844
0.0, 3715.7719911257736, 3164.576185906306, 5134.13839907106, 2728.1672600768507, 0.0, 0.0, 0.0, 0.0, 0.0, 0.0, 0.0, 0.0, 1.6670453628450763E9, 0.0, 2022-10-29 14:09:22.845
101.0, 3341.250929763075, 3399.600848871749, 5033.93525955826, 2603.071346458979, 0.0, 0.0, 0.0, 0.0, 0.0, 0.0, 0.0, 0.0, 1.6670453628586988E9, 0.0, 2022-10-29 14:09:22.858
101.0, 3291.442942153197, 3002.2476982795633, 5134.525478716474, 2594.338680062443, 0.0, 0.0, 0.0, 0.0, 0.0, 0.0, 0.0, 0.0, 1.6670453628586988E9, 0.0, 2022-10-29 14:09:22.858
102.0, 3409.8107757507823, 3201.756401315797, 5338.955890094396, 2912.4209111938253, 0.0, 0.0, 0.0, 0.0, 0.0, 0.0, 0.0, 0.0, 1.6670453628744516E9, 0.0, 2022-10-29 14:09:22.874
102.0, 3698.9835802246816, 3148.8910454921424, 5107.82072308287, 2712.341873414349, 0.0, 0.0, 0.0, 0.0, 0.0, 0.0, 0.0, 0.0, 1.6670453628744516E9, 0.0, 2022-10-29 14:09:22.874
103.0, 3337.2978555099107, 3405.76046409877, 5028.149634326808, 2601.887668123003, 0.0, 0.0, 0.0, 0.0, 0.0, 0.0, 0.0, 0.0, 1.667045362875146E9, 0.0, 2022-10-29 14:09:22.875
103.0, 3300.669275343884, 3023.333254229743, 5158.438399033155, 2604.5149478418753, 0.0, 0.0, 0.0, 0.0, 0.0, 0.0, 0.0, 0.0, 1.667045362875146E9, 0.0, 2022-10-29 14:09:22.875
104.0, 3426.9843963473104, 3219.7976787020452, 5358.190195566509, 2936.427329009399, 0.0, 0.0, 0.0, 0.0, 0.0, 0.0, 0.0, 0.0, 1.66704536288869E9, 0.0, 2022-10-29 14:09:22.888
104.0, 3681.1629569358192, 3139.1336465077475, 5084.042439164594, 2712.0202420181595, 0.0, 0.0, 0.0, 0.0, 0.0, 0.0, 0.0, 0.0, 1.66704536288869E9, 0.0, 2022-10-29 14:09:22.888
105.0, 3335.944011725951, 3400.984611855354, 5030.049503504299, 2594.4153480115347, 0.0, 0.0, 0.0, 0.0, 0.0, 0.0, 0.0, 0.0, 1.667045362904458E9, 0.0, 2022-10-29 14:09:22.904
105.0, 3359.7952236933634, 3078.115308780689, 5221.350996087771, 2627.1114233741537, 0.0, 0.0, 0.0, 0.0, 0.0, 0.0, 0.0, 0.0, 1.667045362904458E9, 0.0, 2022-10-29 14:09:22.904
106.0, 3392.1266588103026, 3181.048575261142, 5302.948133321013, 2897.820341766812, 0.0, 0.0, 0.0, 0.0, 0.0, 0.0, 0.0, 0.0, 1.6670453629051151E9, 0.0, 2022-10-29 14:09:22.905
106.0, 3643.0589862372726, 3107.3519766842946, 5032.630034473725, 2661.2959789191373, 0.0, 0.0, 0.0, 0.0, 0.0, 0.0, 0.0, 0.0, 1.6670453629051151E9, 0.0, 2022-10-29 14:09:22.905
107.0, 3359.7353852940723, 3433.9406102648936, 5065.763678131159, 2620.291715804953, 0.0, 0.0, 0.0, 0.0, 0.0, 0.0, 0.0, 0.0, 1.6670453629188445E9, 0.0, 2022-10-29 14:09:22.918
107.0, 3394.3836884335615, 3103.9991563740186, 5276.314435786568, 2682.3721851194277, 0.0, 0.0, 0.0, 0.0, 0.0, 0.0, 0.0, 0.0, 1.6670453629188445E9, 0.0, 2022-10-29 14:09:22.918
108.0, 3372.899833138101, 3168.1608800138347, 5299.355959413573, 2893.3287219200283, 0.0, 0.0, 0.0, 0.0, 0.0, 0.0, 0.0, 0.0, 1.667045362934444E9, 0.0, 2022-10-29 14:09:22.934
108.0, 3628.581833508797, 3081.3521921923384, 5018.461423491593, 2654.496840799693, 0.0, 0.0, 0.0, 0.0, 0.0, 0.0, 0.0, 0.0, 1.667045362934444E9, 0.0, 2022-10-29 14:09:22.934
109.0, 3371.605827753432, 3440.990321681369, 5086.151742739603, 2630.352046685759, 0.0, 0.0, 0.0, 0.0, 0.0, 0.0, 0.0, 0.0, 1.6670453629352024E9, 0.0, 2022-10-29 14:09:22.935
109.0, 3410.1585864466615, 3114.8448662455194, 5300.468579650391, 2718.7015732889995, 0.0, 0.0, 0.0, 0.0, 0.0, 0.0, 0.0, 0.0, 1.6670453629352024E9, 0.0, 2022-10-29 14:09:22.935
110.0, 3357.9477131152526, 3142.482726918068, 5260.307663976215, 2882.98415864259, 0.0, 0.0, 0.0, 0.0, 0.0, 0.0, 0.0, 0.0, 1.6670453629487832E9, 0.0, 2022-10-29 14:09:22.948
110.0, 3628.1629647137597, 3096.7792795095593, 5017.115059507545, 2649.9715618533082, 0.0, 0.0, 0.0, 0.0, 0.0, 0.0, 0.0, 0.0, 1.6670453629487832E9, 0.0, 2022-10-29 14:09:22.948
111.0, 3368.542849689722, 3433.2786479727365, 5076.020353759639, 2627.001096325461, 0.0, 0.0, 0.0, 0.0, 0.0, 0.0, 0.0, 0.0, 1.6670453629645128E9, 0.0, 2022-10-29 14:09:22.964
111.0, 3427.074153946247, 3121.2251355699264, 5328.506609618198, 2709.5014193980023, 0.0, 0.0, 0.0, 0.0, 0.0, 0.0, 0.0, 0.0, 1.6670453629645128E9, 0.0, 2022-10-29 14:09:22.964
112.0, 3358.9350467035547, 3152.9394871941768, 5258.329256899655, 2866.7118539353833, 0.0, 0.0, 0.0, 0.0, 0.0, 0.0, 0.0, 0.0, 1.6670453629651551E9, 0.0, 2022-10-29 14:09:22.965
112.0, 3592.9256273312494, 3051.2871364485472, 4946.767541341018, 2616.6565330480225, 0.0, 0.0, 0.0, 0.0, 0.0, 0.0, 0.0, 0.0, 1.6670453629651551E9, 0.0, 2022-10-29 14:09:22.965
113.0, 3373.838548026979, 3438.6341847092845, 5082.030372988433, 2632.1677681142464, 0.0, 0.0, 0.0, 0.0, 0.0, 0.0, 0.0, 0.0, 1.6670453629787843E9, 0.0, 2022-10-29 14:09:22.978
113.0, 3468.370129256975, 3174.6159473373555, 5394.848694932181, 2732.574732174631, 0.0, 0.0, 0.0, 0.0, 0.0, 0.0, 0.0, 0.0, 1.6670453629787843E9, 0.0, 2022-10-29 14:09:22.978
114.0, 3278.4449198571965, 3086.8535850271583, 5162.726194332354, 2798.572746692691, 0.0, 0.0, 0.0, 0.0, 0.0, 0.0, 0.0, 0.0, 1.6670453629944344E9, 0.0, 2022-10-29 14:09:22.994
114.0, 3558.4100906401873, 3038.203096453566, 4923.812035412993, 2591.672131394036, 0.0, 0.0, 0.0, 0.0, 0.0, 0.0, 0.0, 0.0, 1.6670453629944344E9, 0.0, 2022-10-29 14:09:22.994
115.0, 3385.088167093694, 3451.4639115072787, 5104.462292922661, 2637.734609198291, 0.0, 0.0, 0.0, 0.0, 0.0, 0.0, 0.0, 0.0, 1.667045362995253E9, 0.0, 2022-10-29 14:09:22.995
115.0, 3493.356400860939, 3196.3989946292713, 5416.192303979304, 2756.0669137462974, 0.0, 0.0, 0.0, 0.0, 0.0, 0.0, 0.0, 0.0, 1.667045362995253E9, 0.0, 2022-10-29 14:09:22.995
116.0, 3337.74103365466, 3130.8703375556506, 5227.359145366587, 2847.5186873627827, 0.0, 0.0, 0.0, 0.0, 0.0, 0.0, 0.0, 0.0, 1.6670453630086496E9, 0.0, 2022-10-29 14:09:23.008
116.0, 3556.678516960703, 3036.85486251954, 4914.7764371200465, 2600.8442360353656, 0.0, 0.0, 0.0, 0.0, 0.0, 0.0, 0.0, 0.0, 1.6670453630086496E9, 0.0, 2022-10-29 14:09:23.008
117.0, 3378.5209027715027, 3444.8349388358183, 5093.8147977488115, 2633.667467996478, 0.0, 0.0, 0.0, 0.0, 0.0, 0.0, 0.0, 0.0, 1.667045363040764E9, 0.0, 2022-10-29 14:09:23.040
117.0, 3496.651252721902, 3187.114692989271, 5417.811680660117, 2761.798310428392, 0.0, 0.0, 0.0, 0.0, 0.0, 0.0, 0.0, 0.0, 1.667045363040764E9, 0.0, 2022-10-29 14:09:23.040
118.0, 3341.9409413048998, 3140.5061897914857, 5239.210888326168, 2864.5894607105292, 0.0, 0.0, 0.0, 0.0, 0.0, 0.0, 0.0, 0.0, 1.6670453630415337E9, 0.0, 2022-10-29 14:09:23.041
118.0, 3567.445688933134, 3046.0718459603377, 4924.301962307189, 2612.3388185491785, 0.0, 0.0, 0.0, 0.0, 0.0, 0.0, 0.0, 0.0, 1.6670453630415337E9, 0.0, 2022-10-29 14:09:23.041
119.0, 3374.5790482182056, 3438.2471050638705, 5084.405209460296, 2629.5591878951527, 0.0, 0.0, 0.0, 0.0, 0.0, 0.0, 0.0, 0.0, 1.6670453630422947E9, 0.0, 2022-10-29 14:09:23.042
119.0, 3486.6731996401213, 3180.145389421843, 5387.593289018143, 2758.385651718825, 0.0, 0.0, 0.0, 0.0, 0.0, 0.0, 0.0, 0.0, 1.6670453630422947E9, 0.0, 2022-10-29 14:09:23.042
120.0, 3357.4054276216775, 3145.627982780803, 5250.224893695675, 2874.1729543469846, 0.0, 0.0, 0.0, 0.0, 0.0, 0.0, 0.0, 0.0, 1.6670453630429783E9, 0.0, 2022-10-29 14:09:23.042
120.0, 3576.2419336289167, 3046.3242892073467, 4938.580900338013, 2615.5233433614485, 0.0, 0.0, 0.0, 0.0, 0.0, 0.0, 0.0, 0.0, 1.6670453630429783E9, 0.0, 2022-10-29 14:09:23.042
121.0, 3367.615354500711, 3436.203249738086, 5071.607271811925, 2628.689661155455, 0.0, 0.0, 0.0, 0.0, 0.0, 0.0, 0.0, 0.0, 1.667045363053759E9, 0.0, 2022-10-29 14:09:23.053
121.0, 3448.1110911970027, 3159.929360211361, 5373.8977753804065, 2734.818672148045, 0.0, 0.0, 0.0, 0.0, 0.0, 0.0, 0.0, 0.0, 1.667045363053759E9, 0.0, 2022-10-29 14:09:23.053
122.0, 3394.583773081191, 3184.597740319092, 5305.339799342677, 2911.7944779512472, 0.0, 0.0, 0.0, 0.0, 0.0, 0.0, 0.0, 0.0, 1.6670453630686913E9, 0.0, 2022-10-29 14:09:23.068
122.0, 3568.313345722854, 3047.8314688894898, 4931.662085419986, 2609.2646207856014, 0.0, 0.0, 0.0, 0.0, 0.0, 0.0, 0.0, 0.0, 1.6670453630686913E9, 0.0, 2022-10-29 14:09:23.068
123.0, 3356.444273333065, 3419.5158161357976, 5061.431004032493, 2611.6637666071765, 0.0, 0.0, 0.0, 0.0, 0.0, 0.0, 0.0, 0.0, 1.6670453630844147E9, 0.0, 2022-10-29 14:09:23.084
123.0, 3429.5649273167364, 3140.018132847268, 5338.896051695105, 2695.162642967887, 0.0, 0.0, 0.0, 0.0, 0.0, 0.0, 0.0, 0.0, 1.6670453630844147E9, 0.0, 2022-10-29 14:09:23.084
124.0, 3405.4818415520713, 3196.090452882927, 5322.950988234021, 2913.546621080488, 0.0, 0.0, 0.0, 0.0, 0.0, 0.0, 0.0, 0.0, 1.6670453630851955E9, 0.0, 2022-10-29 14:09:23.085
124.0, 3578.2128609055653, 3049.8734542652965, 4932.219330513384, 2616.9108462450095, 0.0, 0.0, 0.0, 0.0, 0.0, 0.0, 0.0, 0.0, 1.6670453630851955E9, 0.0, 2022-10-29 14:09:23.085
125.0, 3348.5082056270912, 3416.5538153708912, 5059.149665059522, 2610.452039021533, 0.0, 0.0, 0.0, 0.0, 0.0, 0.0, 0.0, 0.0, 1.6670453630987332E9, 0.0, 2022-10-29 14:09:23.098
125.0, 3440.556493286509, 3138.6418496635742, 5335.604939734098, 2710.49249288626, 0.0, 0.0, 0.0, 0.0, 0.0, 0.0, 0.0, 0.0, 1.6670453630987332E9, 0.0, 2022-10-29 14:09:23.098
126.0, 3401.566166298464, 3188.79016816942, 5323.889703122899, 2907.3683063536882, 0.0, 0.0, 0.0, 0.0, 0.0, 0.0, 0.0, 0.0, 1.6670453631144845E9, 0.0, 2022-10-29 14:09:23.114
126.0, 3563.7095288774, 3041.885027959943, 4922.443232029211, 2603.7987570003606, 0.0, 0.0, 0.0, 0.0, 0.0, 0.0, 0.0, 0.0, 1.6670453631144845E9, 0.0, 2022-10-29 14:09:23.114
127.0, 3350.067743908614, 3421.598940411117, 5058.091273372062, 2613.6552633335814, 0.0, 0.0, 0.0, 0.0, 0.0, 0.0, 0.0, 0.0, 1.6670453631151853E9, 0.0, 2022-10-29 14:09:23.115
127.0, 3434.2061431617476, 3142.4602875183336, 5346.357152106706, 2727.619364733342, 0.0, 0.0, 0.0, 0.0, 0.0, 0.0, 0.0, 0.0, 1.6670453631151853E9, 0.0, 2022-10-29 14:09:23.115
128.0, 3390.735416026786, 3187.1595717887394, 5307.79317371361, 2910.6799877644517, 0.0, 0.0, 0.0, 0.0, 0.0, 0.0, 0.0, 0.0, 1.6670453631287189E9, 0.0, 2022-10-29 14:09:23.128
128.0, 3574.9928070437163, 3048.3438351834193, 4933.539515197743, 2611.104651563801, 0.0, 0.0, 0.0, 0.0, 0.0, 0.0, 0.0, 0.0, 1.6670453631287189E9, 0.0, 2022-10-29 14:09:23.128
129.0, 3347.3937154402956, 3411.8939000261016, 5043.909572740085, 2605.3339859321713, 0.0, 0.0, 0.0, 0.0, 0.0, 0.0, 0.0, 0.0, 1.6670453631445005E9, 0.0, 2022-10-29 14:09:23.144
129.0, 3470.842203127686, 3165.8234425415285, 5389.474458695855, 2731.808052683715, 0.0, 0.0, 0.0, 0.0, 0.0, 0.0, 0.0, 0.0, 1.6670453631445005E9, 0.0, 2022-10-29 14:09:23.144
130.0, 3378.977170566097, 3171.859641070012, 5295.548741258681, 2898.7534468057565, 0.0, 0.0, 0.0, 0.0, 0.0, 0.0, 0.0, 0.0, 1.6670453631451705E9, 0.0, 2022-10-29 14:09:23.145
130.0, 3574.1812487533316, 3050.6550933560356, 4920.737837649416, 2620.4656211528927, 0.0, 0.0, 0.0, 0.0, 0.0, 0.0, 0.0, 0.0, 1.6670453631451705E9, 0.0, 2022-10-29 14:09:23.145
131.0, 3346.7205334482715, 3410.861687638331, 5042.731504254043, 2610.3267523730174, 0.0, 0.0, 0.0, 0.0, 0.0, 0.0, 0.0, 0.0, 1.6670453631586876E9, 0.0, 2022-10-29 14:09:23.158
131.0, 3452.109044249635, 3160.0826961095445, 5369.477213632781, 2756.1136624957435, 0.0, 0.0, 0.0, 0.0, 0.0, 0.0, 0.0, 0.0, 1.6670453631586876E9, 0.0, 2022-10-29 14:09:23.158
132.0, 3402.1869896911085, 3187.9412108794786, 5324.6302033141255, 2908.6791412881576, 0.0, 0.0, 0.0, 0.0, 0.0, 0.0, 0.0, 0.0, 1.6670453631743703E9, 0.0, 2022-10-29 14:09:23.174
132.0, 3576.492506925948, 3048.6879059793428, 4938.266748741735, 2595.700003646314, 0.0, 0.0, 0.0, 0.0, 0.0, 0.0, 0.0, 0.0, 1.6670453631743703E9, 0.0, 2022-10-29 14:09:23.174
133.0, 3349.248705818318, 3413.45717820758, 5041.575875167735, 2611.779703505803, 0.0, 0.0, 0.0, 0.0, 0.0, 0.0, 0.0, 0.0, 1.6670453631750796E9, 0.0, 2022-10-29 14:09:23.175
133.0, 3440.20868259063, 3146.832230566535, 5350.714135555085, 2711.57706387341, 0.0, 0.0, 0.0, 0.0, 0.0, 0.0, 0.0, 0.0, 1.6670453631750796E9, 0.0, 2022-10-29 14:09:23.175
134.0, 3410.022080098279, 3199.6022189413197, 5331.234866635874, 2922.7430350715294, 0.0, 0.0, 0.0, 0.0, 0.0, 0.0, 0.0, 0.0, 1.6670453631887903E9, 0.0, 2022-10-29 14:09:23.188
134.0, 3569.1884823124856, 3038.1974866036326, 4926.788995777722, 2595.182027502451, 0.0, 0.0, 0.0, 0.0, 0.0, 0.0, 0.0, 0.0, 1.6670453631887903E9, 0.0, 2022-10-29 14:09:23.188
135.0, 3336.0244195749983, 3405.113461406436, 5036.067002533004, 2608.2137088980526, 0.0, 0.0, 0.0, 0.0, 0.0, 0.0, 0.0, 0.0, 1.6670453632043684E9, 0.0, 2022-10-29 14:09:23.204
135.0, 3458.455654474441, 3162.476232081186, 5362.535959315021, 2740.6641357787885, 0.0, 0.0, 0.0, 0.0, 0.0, 0.0, 0.0, 0.0, 1.6670453632043684E9, 0.0, 2022-10-29 14:09:23.204
136.0, 3406.787066636607, 3196.752415175084, 5326.268279494718, 2916.237479098607, 0.0, 0.0, 0.0, 0.0, 0.0, 0.0, 0.0, 0.0, 1.6670453632050567E9, 0.0, 2022-10-29 14:09:23.205
136.0, 3564.7754003647715, 3037.9057744070888, 4923.535282816272, 2592.061080989428, 0.0, 0.0, 0.0, 0.0, 0.0, 0.0, 0.0, 0.0, 1.6670453632050567E9, 0.0, 2022-10-29 14:09:23.205
137.0, 3339.6409028321505, 3406.486004690174, 5037.768657012843, 2599.8943014466204, 0.0, 0.0, 0.0, 0.0, 0.0, 0.0, 0.0, 0.0, 1.6670453632187977E9, 0.0, 2022-10-29 14:09:23.218
137.0, 3455.4188557104208, 3162.0872824857943, 5365.913088975009, 2727.572615983896, 0.0, 0.0, 0.0, 0.0, 0.0, 0.0, 0.0, 0.0, 1.6670453632187977E9, 0.0, 2022-10-29 14:09:23.218
138.0, 3403.6231112740934, 3193.868952309247, 5329.349957058206, 2901.668698821217, 0.0, 0.0, 0.0, 0.0, 0.0, 0.0, 0.0, 0.0, 1.6670453632343771E9, 0.0, 2022-10-29 14:09:23.234
138.0, 3550.380525435321, 3024.9432811606675, 4912.65591384517, 2581.0639051697217, 0.0, 0.0, 0.0, 0.0, 0.0, 0.0, 0.0, 0.0, 1.6670453632343771E9, 0.0, 2022-10-29 14:09:23.234
