%OpenBCI Raw EEG Data
%Number of channels = 4
%Sample Rate = 200 Hz
%Board = OpenBCI_GUI$BoardGanglionBLE
Sample Index, EXG Channel 0, EXG Channel 1, EXG Channel 2, EXG Channel 3, Accel Channel 0, Accel Channel 1, Accel Channel 2, Other, Other, Other, Other, Other, Timestamp, Other, Timestamp (Formatted)
125.0, -420.7705341647379, 30.64848013687879, -473.8696337356232, 39.07821463700384, 0.0, 0.0, 0.0, 0.0, 0.0, 0.0, 0.0, 0.0, 1.667045534138621E9, 0.0, 2022-10-29 14:12:14.138
125.0, -528.8873019837774, -276.47584412433207, -147.030426857993, -444.96955682802945, 0.0, 0.0, 0.0, 0.0, 0.0, 0.0, 0.0, 0.0, 1.667045534138621E9, 0.0, 2022-10-29 14:12:14.138
0.0, -2368.0504233934917, -1904.5851913345978, -4405.903209749144, -2234.2181034791283, 0.0, 0.0, 0.0, 0.0, 0.0, 0.0, 0.0, 0.0, 1.6670455341645737E9, 0.0, 2022-10-29 14:12:14.164
101.0, -1950.569131239783, -1507.9538414338604, -4546.016691639088, -1766.693210018333, 0.0, 0.0, 0.0, 0.0, 0.0, 0.0, 0.0, 0.0, 1.6670455341779177E9, 0.0, 2022-10-29 14:12:14.177
101.0, -1646.5638835416175, -1351.4278085883707, -4433.830912668258, -1747.2307706489228, 0.0, 0.0, 0.0, 0.0, 0.0, 0.0, 0.0, 0.0, 1.6670455341779177E9, 0.0, 2022-10-29 14:12:14.177
102.0, -1325.4280240964144, -1504.954441669397, -4432.9800854283385, -1371.7840840471908, 0.0, 0.0, 0.0, 0.0, 0.0, 0.0, 0.0, 0.0, 1.6670455341949258E9, 0.0, 2022-10-29 14:12:14.194
102.0, -1415.5558731285855, -1921.0856299391016, -4421.833313610405, -1273.8791130571626, 0.0, 0.0, 0.0, 0.0, 0.0, 0.0, 0.0, 0.0, 1.6670455341949258E9, 0.0, 2022-10-29 14:12:14.194
103.0, -950.144023142755, -1503.7651534834877, -4536.8819859973155, -1743.3506244448945, 0.0, 0.0, 0.0, 0.0, 0.0, 0.0, 0.0, 0.0, 1.6670455341953769E9, 0.0, 2022-10-29 14:12:14.195
103.0, -600.0295488908887, -1286.7836378542706, -4408.408942719456, -1696.994564494118, 0.0, 0.0, 0.0, 0.0, 0.0, 0.0, 0.0, 0.0, 1.6670455341953769E9, 0.0, 2022-10-29 14:12:14.195
104.0, -289.0475178253837, -1444.2932643881068, -4423.353582942393, -1332.9732722570188, 0.0, 0.0, 0.0, 0.0, 0.0, 0.0, 0.0, 0.0, 1.6670455342078345E9, 0.0, 2022-10-29 14:12:14.207
104.0, -396.2779293549247, -1885.6762571586296, -4409.58514125552, -1258.2856001919135, 0.0, 0.0, 0.0, 0.0, 0.0, 0.0, 0.0, 0.0, 1.6670455342078345E9, 0.0, 2022-10-29 14:12:14.207
105.0, -870.207401489839, -1431.5102863395587, -4487.52278638212, -1717.5023059011437, 0.0, 0.0, 0.0, 0.0, 0.0, 0.0, 0.0, 0.0, 1.667045534223412E9, 0.0, 2022-10-29 14:12:14.223
105.0, -536.4325501443818, -1212.4643459348008, -4403.999600671697, -1672.9563575289212, 0.0, 0.0, 0.0, 0.0, 0.0, 0.0, 0.0, 0.0, 1.667045534223412E9, 0.0, 2022-10-29 14:12:14.223
106.0, -237.85576723190024, -1405.5965195465833, -4412.133883075323, -1311.3622603630647, 0.0, 0.0, 0.0, 0.0, 0.0, 0.0, 0.0, 0.0, 1.6670455342243063E9, 0.0, 2022-10-29 14:12:14.224
106.0, -322.6879179268144, -1828.6315631344914, -4377.7062340332195, -1232.0894709522836, 0.0, 0.0, 0.0, 0.0, 0.0, 0.0, 0.0, 0.0, 1.6670455342243063E9, 0.0, 2022-10-29 14:12:14.224
107.0, -776.1750969039276, -1365.0111252274364, -4432.0750296390615, -1658.7840066468343, 0.0, 0.0, 0.0, 0.0, 0.0, 0.0, 0.0, 0.0, 1.667045534237604E9, 0.0, 2022-10-29 14:12:14.237
107.0, -507.8634543828666, -1210.4560196585953, -4423.241385943722, -1653.252694612369, 0.0, 0.0, 0.0, 0.0, 0.0, 0.0, 0.0, 0.0, 1.667045534237604E9, 0.0, 2022-10-29 14:12:14.237
108.0, -196.40271612303331, -1382.5325565198436, -4418.871312845498, -1300.7951730382629, 0.0, 0.0, 0.0, 0.0, 0.0, 0.0, 0.0, 0.0, 1.6670455342696512E9, 0.0, 2022-10-29 14:12:14.269
108.0, -272.95472831605, -1788.4463381106034, -4347.160601145122, -1203.0285783465952, 0.0, 0.0, 0.0, 0.0, 0.0, 0.0, 0.0, 0.0, 1.6670455342696512E9, 0.0, 2022-10-29 14:12:14.269
109.0, -758.4928499134257, -1346.1321102511138, -4375.275299062021, -1645.8869616496377, 0.0, 0.0, 0.0, 0.0, 0.0, 0.0, 0.0, 0.0, 1.667045534270367E9, 0.0, 2022-10-29 14:12:14.270
109.0, -557.6041237935424, -1243.3446998689324, -4469.4515897962265, -1685.068023535423, 0.0, 0.0, 0.0, 0.0, 0.0, 0.0, 0.0, 0.0, 1.667045534270367E9, 0.0, 2022-10-29 14:12:14.270
110.0, -230.8322351151146, -1395.0911405710503, -4438.251474415883, -1303.8282319023274, 0.0, 0.0, 0.0, 0.0, 0.0, 0.0, 0.0, 0.0, 1.6670455342710867E9, 0.0, 2022-10-29 14:12:14.271
110.0, -293.3820618740283, -1795.1220595315099, -4356.233598437626, -1200.0254386821762, 0.0, 0.0, 0.0, 0.0, 0.0, 0.0, 0.0, 0.0, 1.6670455342710867E9, 0.0, 2022-10-29 14:12:14.271
111.0, -781.2052623443305, -1359.382575794123, -4367.7207011515275, -1634.0950570893474, 0.0, 0.0, 0.0, 0.0, 0.0, 0.0, 0.0, 0.0, 1.667045534271886E9, 0.0, 2022-10-29 14:12:14.271
111.0, -609.8991448739544, -1282.9502403996885, -4496.319031077903, -1699.7770500611514, 0.0, 0.0, 0.0, 0.0, 0.0, 0.0, 0.0, 0.0, 1.667045534271886E9, 0.0, 2022-10-29 14:12:14.271
112.0, -262.34837204171345, -1428.4622678756714, -4449.886303178035, -1325.9833992398344, 0.0, 0.0, 0.0, 0.0, 0.0, 0.0, 0.0, 0.0, 1.667045534282668E9, 0.0, 2022-10-29 14:12:14.282
112.0, -324.0642011105083, -1824.2521402863786, -4365.811482224148, -1232.5214293971658, 0.0, 0.0, 0.0, 0.0, 0.0, 0.0, 0.0, 0.0, 1.667045534282668E9, 0.0, 2022-10-29 14:12:14.282
113.0, -781.7251084381714, -1356.1213830327615, -4354.771297554951, -1628.0401590610854, 0.0, 0.0, 0.0, 0.0, 0.0, 0.0, 0.0, 0.0, 1.6670455342976003E9, 0.0, 2022-10-29 14:12:14.297
113.0, -611.2791679576039, -1288.346916035749, -4494.391112650745, -1702.941005423665, 0.0, 0.0, 0.0, 0.0, 0.0, 0.0, 0.0, 0.0, 1.6670455342976003E9, 0.0, 2022-10-29 14:12:14.297
114.0, -265.27671370701864, -1426.8915098942816, -4458.011235831771, -1329.6223218967207, 0.0, 0.0, 0.0, 0.0, 0.0, 0.0, 0.0, 0.0, 1.6670455343134446E9, 0.0, 2022-10-29 14:12:14.313
114.0, -322.7739356257953, -1824.1960417870432, -4378.001686129719, -1217.41971337609, 0.0, 0.0, 0.0, 0.0, 0.0, 0.0, 0.0, 0.0, 1.6670455343134446E9, 0.0, 2022-10-29 14:12:14.313
115.0, -773.661884133704, -1340.8887705132365, -4359.7360147461295, -1615.2833603122272, 0.0, 0.0, 0.0, 0.0, 0.0, 0.0, 0.0, 0.0, 1.6670455343141165E9, 0.0, 2022-10-29 14:12:14.314
115.0, -612.2253626463935, -1292.0681164916605, -4496.154475479852, -1711.6587122203782, 0.0, 0.0, 0.0, 0.0, 0.0, 0.0, 0.0, 0.0, 1.6670455343141165E9, 0.0, 2022-10-29 14:12:14.314
116.0, -265.72176180174574, -1425.8705172063783, -4461.106003045104, -1331.380074875895, 0.0, 0.0, 0.0, 0.0, 0.0, 0.0, 0.0, 0.0, 1.6670455343276496E9, 0.0, 2022-10-29 14:12:14.327
116.0, -315.8738202075474, -1818.866684350185, -4378.747796170879, -1223.437212404795, 0.0, 0.0, 0.0, 0.0, 0.0, 0.0, 0.0, 0.0, 1.6670455343276496E9, 0.0, 2022-10-29 14:12:14.327
117.0, -750.1940119117498, -1334.3850844902918, -4332.799385315273, -1612.9982814393006, 0.0, 0.0, 0.0, 0.0, 0.0, 0.0, 0.0, 0.0, 1.6670455343433573E9, 0.0, 2022-10-29 14:12:14.343
117.0, -618.5158743718639, -1296.4624989395961, -4487.539615931921, -1722.5904397908598, 0.0, 0.0, 0.0, 0.0, 0.0, 0.0, 0.0, 0.0, 1.6670455343433573E9, 0.0, 2022-10-29 14:12:14.343
118.0, -276.6759287719615, -1437.318350970745, -4481.88301724894, -1337.6107482020743, 0.0, 0.0, 0.0, 0.0, 0.0, 0.0, 0.0, 0.0, 1.667045534344113E9, 0.0, 2022-10-29 14:12:14.344
118.0, -318.34215417830274, -1830.9802203066647, -4384.366995854303, -1234.9112254688516, 0.0, 0.0, 0.0, 0.0, 0.0, 0.0, 0.0, 0.0, 1.667045534344113E9, 0.0, 2022-10-29 14:12:14.344
119.0, -742.8525882987306, -2312.44933075225, -4316.087642363273, -1634.1586353885941, 0.0, 0.0, 0.0, 0.0, 0.0, 0.0, 0.0, 0.0, 1.667045534374812E9, 0.0, 2022-10-29 14:12:14.374
119.0, -631.3736504195258, -2276.142381982412, -4507.183440449182, -1729.426976909861, 0.0, 0.0, 0.0, 0.0, 0.0, 0.0, 0.0, 0.0, 1.667045534374812E9, 0.0, 2022-10-29 14:12:14.374
120.0, -288.0527044371702, -2426.5686380001716, -4476.806103059091, -1357.7837685630657, 0.0, 0.0, 0.0, 0.0, 0.0, 0.0, 0.0, 0.0, 1.6670455343754077E9, 0.0, 2022-10-29 14:12:14.375
120.0, -338.818106435705, -2816.9580948748626, -4400.873044308741, -1239.623499413021, 0.0, 0.0, 0.0, 0.0, 0.0, 0.0, 0.0, 0.0, 1.6670455343754077E9, 0.0, 2022-10-29 14:12:14.375
121.0, -742.9498256975785, -3286.0294369673356, -4294.790782065596, -1594.6839913562872, 0.0, 0.0, 0.0, 0.0, 0.0, 0.0, 0.0, 0.0, 1.6670455343761857E9, 0.0, 2022-10-29 14:12:14.376
121.0, -638.7636927319691, -3266.7091137962416, -4515.637484299019, -1725.3205667585135, 0.0, 0.0, 0.0, 0.0, 0.0, 0.0, 0.0, 0.0, 1.6670455343761857E9, 0.0, 2022-10-29 14:12:14.376
122.0, -292.14041508873925, -3406.8282055361196, -4484.007280423772, -1345.9656847030856, 0.0, 0.0, 0.0, 0.0, 0.0, 0.0, 0.0, 0.0, 1.6670455343877387E9, 0.0, 2022-10-29 14:12:14.387
122.0, -336.9182372582145, -3791.5030952785164, -4397.460385599174, -1246.665731029585, 0.0, 0.0, 0.0, 0.0, 0.0, 0.0, 0.0, 0.0, 1.6670455343877387E9, 0.0, 2022-10-29 14:12:14.387
123.0, -723.5846237270162, -4246.669489335734, -4269.690443512984, -1588.400959430728, 0.0, 0.0, 0.0, 0.0, 0.0, 0.0, 0.0, 0.0, 1.6670455344033809E9, 0.0, 2022-10-29 14:12:14.403
123.0, -651.1165822856128, -4244.23481446458, -4527.865087204147, -1726.4874155446887, 0.0, 0.0, 0.0, 0.0, 0.0, 0.0, 0.0, 0.0, 1.6670455344033809E9, 0.0, 2022-10-29 14:12:14.403
124.0, -323.7949283136986, -4398.7637407337315, -4503.179877546616, -1360.2857616334222, 0.0, 0.0, 0.0, 0.0, 0.0, 0.0, 0.0, 0.0, 1.667045534404058E9, 0.0, 2022-10-29 14:12:14.404
124.0, -346.71303524216637, -4795.421269934159, -4409.684248604346, -1299.8919871989638, 0.0, 0.0, 0.0, 0.0, 0.0, 0.0, 0.0, 0.0, 1.667045534404058E9, 0.0, 2022-10-29 14:12:14.404
125.0, -698.9573825187981, -5216.565794094466, -4221.081093838904, -1557.7898782934062, 0.0, 0.0, 0.0, 0.0, 0.0, 0.0, 0.0, 0.0, 1.6670455344341688E9, 0.0, 2022-10-29 14:12:14.434
125.0, -616.0625000009313, -5207.462877602316, -4525.78009297885, -1728.8398126168177, 0.0, 0.0, 0.0, 0.0, 0.0, 0.0, 0.0, 0.0, 1.6670455344341688E9, 0.0, 2022-10-29 14:12:14.434
126.0, -256.1027391157113, -5350.794543404132, -4487.260993385222, -1343.0822218372487, 0.0, 0.0, 0.0, 0.0, 0.0, 0.0, 0.0, 0.0, 1.6670455344346595E9, 0.0, 2022-10-29 14:12:14.434
126.0, -288.65108843008056, -5721.770179608837, -4377.68005473353, -1220.867901135236, 0.0, 0.0, 0.0, 0.0, 0.0, 0.0, 0.0, 0.0, 1.6670455344346595E9, 0.0, 2022-10-29 14:12:14.434
127.0, -651.9169208761305, -6151.265900370199, -4165.695045445114, -1532.0593665982597, 0.0, 0.0, 0.0, 0.0, 0.0, 0.0, 0.0, 0.0, 1.667045534435547E9, 0.0, 2022-10-29 14:12:14.435
127.0, -656.6535041700117, -6222.613841774873, -4566.415975947399, -1747.0456456011161, 0.0, 0.0, 0.0, 0.0, 0.0, 0.0, 0.0, 0.0, 1.667045534435547E9, 0.0, 2022-10-29 14:12:14.435
128.0, -294.8050938071683, -6348.857904679142, -4519.500800953247, -1359.5003826427273, 0.0, 0.0, 0.0, 0.0, 0.0, 0.0, 0.0, 0.0, 1.6670455344476647E9, 0.0, 2022-10-29 14:12:14.447
128.0, -310.5612923204899, -6715.345660937019, -4378.665518371854, -1241.504669090733, 0.0, 0.0, 0.0, 0.0, 0.0, 0.0, 0.0, 0.0, 1.6670455344476647E9, 0.0, 2022-10-29 14:12:14.447
129.0, -674.0103798643686, -7147.294756069314, -4168.460701462347, -1544.3000591532327, 0.0, 0.0, 0.0, 0.0, 0.0, 0.0, 0.0, 0.0, 1.667045534463319E9, 0.0, 2022-10-29 14:12:14.463
129.0, -689.4056780319661, -7234.451254586689, -4572.356807027012, -1762.5998895168304, 0.0, 0.0, 0.0, 0.0, 0.0, 0.0, 0.0, 0.0, 1.667045534463319E9, 0.0, 2022-10-29 14:12:14.463
130.0, -303.3563750558533, -7338.59250875283, -4523.73249775311, -1375.7091090506874, 0.0, 0.0, 0.0, 0.0, 0.0, 0.0, 0.0, 0.0, 1.667045534464204E9, 0.0, 2022-10-29 14:12:14.464
130.0, -309.0260633886792, -7693.00786795374, -4389.797330589965, -1231.3321412112564, 0.0, 0.0, 0.0, 0.0, 0.0, 0.0, 0.0, 0.0, 1.667045534464204E9, 0.0, 2022-10-29 14:12:14.464
131.0, -636.9648008532822, -8103.908806135412, -4148.32695005089, -1497.36805460928, 0.0, 0.0, 0.0, 0.0, 0.0, 0.0, 0.0, 0.0, 1.667045534494006E9, 0.0, 2022-10-29 14:12:14.494
131.0, -670.9100028011017, -8205.202126485296, -4577.085910520982, -1756.9713400835171, 0.0, 0.0, 0.0, 0.0, 0.0, 0.0, 0.0, 0.0, 1.667045534494006E9, 0.0, 2022-10-29 14:12:14.494
132.0, -292.5387144340202, -8309.941764644347, -4532.560531598516, -1370.7387820095755, 0.0, 0.0, 0.0, 0.0, 0.0, 0.0, 0.0, 0.0, 1.6670455344946883E9, 0.0, 2022-10-29 14:12:14.494
132.0, -301.2526813307777, -8667.109690212645, -4377.420131686609, -1241.1381588950753, 0.0, 0.0, 0.0, 0.0, 0.0, 0.0, 0.0, 0.0, 1.6670455344946883E9, 0.0, 2022-10-29 14:12:14.494
133.0, -618.6299413205124, -9073.945357142482, -4097.529758902732, -1510.1622523576953, 0.0, 0.0, 0.0, 0.0, 0.0, 0.0, 0.0, 0.0, 1.6670455344954596E9, 0.0, 2022-10-29 14:12:14.495
133.0, -697.0500335413963, -9205.935776328668, -3637.2864506556652, -1782.432578981854, 0.0, 0.0, 0.0, 0.0, 0.0, 0.0, 0.0, 0.0, 1.6670455344954596E9, 0.0, 2022-10-29 14:12:14.495
134.0, -297.7427852223627, -9299.362217121758, -3572.6142306718975, -1375.0583664583974, 0.0, 0.0, 0.0, 0.0, 0.0, 0.0, 0.0, 0.0, 1.6670455345076237E9, 0.0, 2022-10-29 14:12:14.507
134.0, -273.8429545555264, -9629.449527110904, -3369.3600178300403, -1215.9200134938583, 0.0, 0.0, 0.0, 0.0, 0.0, 0.0, 0.0, 0.0, 1.6670455345076237E9, 0.0, 2022-10-29 14:12:14.507
135.0, -586.687455798965, -10020.802008224186, -3063.929868248757, -1475.8711096639745, 0.0, 0.0, 0.0, 0.0, 0.0, 0.0, 0.0, 0.0, 1.6670455345233288E9, 0.0, 2022-10-29 14:12:14.523
135.0, -715.0277326283976, -10193.25440503098, -2685.2201189356856, -1792.0067228684202, 0.0, 0.0, 0.0, 0.0, 0.0, 0.0, 0.0, 0.0, 1.6670455345233288E9, 0.0, 2022-10-29 14:12:14.523
136.0, -308.8652476905845, -10285.480337938294, -2603.7744476506487, -1370.3610521140508, 0.0, 0.0, 0.0, 0.0, 0.0, 0.0, 0.0, 0.0, 1.6670455345242102E9, 0.0, 2022-10-29 14:12:14.524
136.0, -254.69092688243836, -10601.617821092717, -2364.7331321327947, -1215.9536725934595, 0.0, 0.0, 0.0, 0.0, 0.0, 0.0, 0.0, 0.0, 1.6670455345242102E9, 0.0, 2022-10-29 14:12:14.524
137.0, -558.9897567271255, -10988.770394555759, -2055.6117012952454, -1450.114418669138, 0.0, 0.0, 0.0, 0.0, 0.0, 0.0, 0.0, 0.0, 1.6670455345376294E9, 0.0, 2022-10-29 14:12:14.537
137.0, -740.8255625227466, -11195.887924051844, -1738.5616825516336, -1800.8179271640256, 0.0, 0.0, 0.0, 0.0, 0.0, 0.0, 0.0, 0.0, 1.6670455345376294E9, 0.0, 2022-10-29 14:12:14.537
138.0, -318.37955317785963, -11275.4243764095, -1638.1734179910272, -1377.2649074322544, 0.0, 0.0, 0.0, 0.0, 0.0, 0.0, 0.0, 0.0, 1.6670455345532997E9, 0.0, 2022-10-29 14:12:14.553
138.0, -255.8278564689681, -11577.85512622632, -1378.3943572188728, -1201.8766891602427, 0.0, 0.0, 0.0, 0.0, 0.0, 0.0, 0.0, 0.0, 1.6670455345532997E9, 0.0, 2022-10-29 14:12:14.553
139.0, -553.6940583898686, -11948.11457158951, -1044.9261776697822, -1429.44399161404, 0.0, 0.0, 0.0, 0.0, 0.0, 0.0, 0.0, 0.0, 1.667045534554034E9, 0.0, 2022-10-29 14:12:14.554
139.0, -769.7088098805398, -12192.208491947502, -788.5635155071504, -1807.6245450833812, 0.0, 0.0, 0.0, 0.0, 0.0, 0.0, 0.0, 0.0, 1.667045534554034E9, 0.0, 2022-10-29 14:12:14.554
140.0, -324.3147744075395, -12256.138341790065, -659.9315264811739, -1382.3212521723472, 0.0, 0.0, 0.0, 0.0, 0.0, 0.0, 0.0, 0.0, 1.6670455345676663E9, 0.0, 2022-10-29 14:12:14.567
140.0, -255.1920734765008, -12553.542666066438, -400.4254784057848, -1200.5602443758398, 0.0, 0.0, 0.0, 0.0, 0.0, 0.0, 0.0, 0.0, 1.6670455345676663E9, 0.0, 2022-10-29 14:12:14.567
141.0, -544.5200837985612, -12922.552984844428, -50.96548664616421, -1418.6207211422734, 0.0, 0.0, 0.0, 0.0, 0.0, 0.0, 0.0, 0.0, 1.667045534599758E9, 0.0, 2022-10-29 14:12:14.599
141.0, -791.1533962264657, -13186.849844763055, 178.0323275406845, -1829.3271845262498, 0.0, 0.0, 0.0, 0.0, 0.0, 0.0, 0.0, 0.0, 1.667045534599758E9, 0.0, 2022-10-29 14:12:14.599
142.0, -335.8112268713303, -13243.35973309353, 316.0327659556642, -1384.0565657517873, 0.0, 0.0, 0.0, 0.0, 0.0, 0.0, 0.0, 0.0, 1.6670455346004653E9, 0.0, 2022-10-29 14:12:14.600
142.0, -253.23984569963068, -13537.58140250761, 585.4458090136759, -1209.760398266837, 0.0, 0.0, 0.0, 0.0, 0.0, 0.0, 0.0, 0.0, 1.6670455346004653E9, 0.0, 2022-10-29 14:12:14.600
143.0, -544.5537428981625, -13901.355861347634, 943.7319646687247, -1409.8618754460476, 0.0, 0.0, 0.0, 0.0, 0.0, 0.0, 0.0, 0.0, 1.6670455346012557E9, 0.0, 2022-10-29 14:12:14.601
143.0, -805.4622534569353, -14178.091628518887, 1148.94027523743, -1828.6914015337825, 0.0, 0.0, 0.0, 0.0, 0.0, 0.0, 0.0, 0.0, 1.6670455346012557E9, 0.0, 2022-10-29 14:12:14.601
144.0, -354.53690594946966, -14239.654121689498, 1283.2868313957006, -1386.1621294268407, 0.0, 0.0, 0.0, 0.0, 0.0, 0.0, 0.0, 0.0, 1.6670455346020448E9, 0.0, 2022-10-29 14:12:14.602
144.0, -274.43759864848107, -14530.487441743724, 1548.3054920057766, -1200.3695094780996, 0.0, 0.0, 0.0, 0.0, 0.0, 0.0, 0.0, 0.0, 1.6670455346020448E9, 0.0, 2022-10-29 14:12:14.602
145.0, -566.6677713361569, -14897.066825550515, 1935.2804202209227, -1409.5963425491937, 0.0, 0.0, 0.0, 0.0, 0.0, 0.0, 0.0, 0.0, 1.6670455346127028E9, 0.0, 2022-10-29 14:12:14.612
145.0, -862.9033768763766, -15194.936767371371, 2115.6632748837583, -1851.2953568659723, 0.0, 0.0, 0.0, 0.0, 0.0, 0.0, 0.0, 0.0, 1.6670455346127028E9, 0.0, 2022-10-29 14:12:14.612
146.0, -418.38821789296344, -15264.20719435066, 2238.9210276734084, -1424.8513944684528, 0.0, 0.0, 0.0, 0.0, 0.0, 0.0, 0.0, 0.0, 1.6670455346276505E9, 0.0, 2022-10-29 14:12:14.627
146.0, -388.145516901277, -15599.904354273342, 2462.277202777099, -1274.8496170956641, 0.0, 0.0, 0.0, 0.0, 0.0, 0.0, 0.0, 0.0, 1.6670455346276505E9, 0.0, 2022-10-29 14:12:14.627
147.0, -656.9900951660238, -15964.793303300161, 2869.0100224581547, -1501.6240607588552, 0.0, 0.0, 0.0, 0.0, 0.0, 0.0, 0.0, 0.0, 1.6670455346434329E9, 0.0, 2022-10-29 14:12:14.643
147.0, -895.0216376958415, -16215.562945079058, 3132.650529934559, -1885.38080506213, 0.0, 0.0, 0.0, 0.0, 0.0, 0.0, 0.0, 0.0, 1.6670455346434329E9, 0.0, 2022-10-29 14:12:14.643
148.0, -515.7490334394388, -16323.350601701997, 3213.273423229344, -1498.0599361010827, 0.0, 0.0, 0.0, 0.0, 0.0, 0.0, 0.0, 0.0, 1.66704553464415E9, 0.0, 2022-10-29 14:12:14.644
148.0, -675.7756126434542, -15837.348732510116, 3236.324296606239, -1429.9357884582132, 0.0, 0.0, 0.0, 0.0, 0.0, 0.0, 0.0, 0.0, 1.66704553464415E9, 0.0, 2022-10-29 14:12:14.644
149.0, -1087.6751041132957, -15380.407755923923, 3628.2134533631615, -1741.3105090190656, 0.0, 0.0, 0.0, 0.0, 0.0, 0.0, 0.0, 0.0, 1.6670455346577709E9, 0.0, 2022-10-29 14:12:14.657
149.0, -958.5700177429244, -15280.62348520616, 3278.3364627584815, -1912.2669458435848, 0.0, 0.0, 0.0, 0.0, 0.0, 0.0, 0.0, 0.0, 1.6670455346577709E9, 0.0, 2022-10-29 14:12:14.657
150.0, -733.9422766542993, -15508.450710706878, 3182.1873747976497, -1576.3584815734066, 0.0, 0.0, 0.0, 0.0, 0.0, 0.0, 0.0, 0.0, 1.6670455346735065E9, 0.0, 2022-10-29 14:12:14.673
150.0, -1167.2246461207978, -15316.21798303444, 2873.1370020592585, -1714.7459996338002, 0.0, 0.0, 0.0, 0.0, 0.0, 0.0, 0.0, 0.0, 1.6670455346735065E9, 0.0, 2022-10-29 14:12:14.673
151.0, -1411.860851972364, -15690.71099514747, 2383.122220214922, -1930.2035060310736, 0.0, 0.0, 0.0, 0.0, 0.0, 0.0, 0.0, 0.0, 1.6670455346740508E9, 0.0, 2022-10-29 14:12:14.674
151.0, -1696.850578345824, -16058.371210041456, 2631.608653070871, -1784.3960264585912, 0.0, 0.0, 0.0, 0.0, 0.0, 0.0, 0.0, 0.0, 1.6670455346740508E9, 0.0, 2022-10-29 14:12:14.674
152.0, -1733.7521712086163, -16491.477804210037, 2223.3611739077605, -1562.5507709369995, 0.0, 0.0, 0.0, 0.0, 0.0, 0.0, 0.0, 0.0, 1.6670455346877596E9, 0.0, 2022-10-29 14:12:14.687
152.0, -1612.7570578921586, -16545.268785272725, 2386.0374722303823, -1928.5373806008138, 0.0, 0.0, 0.0, 0.0, 0.0, 0.0, 0.0, 0.0, 1.6670455346877596E9, 0.0, 2022-10-29 14:12:14.687
153.0, -2091.0547331753187, -16979.633855776396, 2819.488137194887, -2188.417418671772, 0.0, 0.0, 0.0, 0.0, 0.0, 0.0, 0.0, 0.0, 1.667045534703415E9, 0.0, 2022-10-29 14:12:14.703
153.0, -1866.5971575346775, -16897.296218351927, 2879.5920693827793, -1747.759966492653, 0.0, 0.0, 0.0, 0.0, 0.0, 0.0, 0.0, 0.0, 1.667045534703415E9, 0.0, 2022-10-29 14:12:14.703
154.0, -2302.074848275166, -16657.47700364329, 3094.6269670850597, -1724.963406312745, 0.0, 0.0, 0.0, 0.0, 0.0, 0.0, 0.0, 0.0, 1.6670455347041492E9, 0.0, 2022-10-29 14:12:14.704
154.0, -2109.8122014030814, -16429.5544106937, 2759.808683651965, -1412.994041658938, 0.0, 0.0, 0.0, 0.0, 0.0, 0.0, 0.0, 0.0, 1.6670455347041492E9, 0.0, 2022-10-29 14:12:14.704
155.0, -1856.9089466994628, -16808.165052657947, 2787.3867059252225, -1503.1200207411312, 0.0, 0.0, 0.0, 0.0, 0.0, 0.0, 0.0, 0.0, 1.667045534717678E9, 0.0, 2022-10-29 14:12:14.717
155.0, -1611.171340310946, -16463.495872741565, 2744.9556709779426, -1449.3103401786648, 0.0, 0.0, 0.0, 0.0, 0.0, 0.0, 0.0, 0.0, 1.667045534717678E9, 0.0, 2022-10-29 14:12:14.717
156.0, -1435.390432543587, -16463.21351029491, 2538.801165720448, -1494.1106017478742, 0.0, 0.0, 0.0, 0.0, 0.0, 0.0, 0.0, 0.0, 1.6670455347333412E9, 0.0, 2022-10-29 14:12:14.733
156.0, -1582.7424907977693, -16742.08663029084, 2915.354862709064, -1363.8854153407738, 0.0, 0.0, 0.0, 0.0, 0.0, 0.0, 0.0, 0.0, 1.6670455347333412E9, 0.0, 2022-10-29 14:12:14.733
157.0, -1163.3463698667474, -16648.215141403023, 3007.1768864211626, -1504.1746725286357, 0.0, 0.0, 0.0, 0.0, 0.0, 0.0, 0.0, 0.0, 1.6670455347340577E9, 0.0, 2022-10-29 14:12:14.734
157.0, -1633.9697704408318, -16612.342021028046, 3070.7252664682455, -1205.827893463429, 0.0, 0.0, 0.0, 0.0, 0.0, 0.0, 0.0, 0.0, 1.6670455347340577E9, 0.0, 2022-10-29 14:12:14.734
158.0, -1974.3792043076828, -17077.2115855203, 2648.311046272982, -1385.2159347380511, 0.0, 0.0, 0.0, 0.0, 0.0, 0.0, 0.0, 0.0, 1.6670455347476604E9, 0.0, 2022-10-29 14:12:14.747
158.0, -2371.373324504122, -17507.071946527343, 2896.904066277668, -1336.3634915668517, 0.0, 0.0, 0.0, 0.0, 0.0, 0.0, 0.0, 0.0, 1.6670455347476604E9, 0.0, 2022-10-29 14:12:14.747
159.0, -2773.4705381901003, -17104.69237039471, 3096.1846354166046, -1247.2229761229828, 0.0, 0.0, 0.0, 0.0, 0.0, 0.0, 0.0, 0.0, 1.6670455347633567E9, 0.0, 2022-10-29 14:12:14.763
159.0, -3077.6983099356294, -16780.095233540516, 3194.390668353066, -1704.4687545555644, 0.0, 0.0, 0.0, 0.0, 0.0, 0.0, 0.0, 0.0, 1.6670455347633567E9, 0.0, 2022-10-29 14:12:14.763
160.0, -2645.8801113017835, -16580.592140354216, 3645.5441497578286, -2052.141074136365, 0.0, 0.0, 0.0, 0.0, 0.0, 0.0, 0.0, 0.0, 1.667045534764146E9, 0.0, 2022-10-29 14:12:14.764
160.0, -2182.2802428444847, -16246.935095857363, 3860.0031028669327, -2178.789046235848, 0.0, 0.0, 0.0, 0.0, 0.0, 0.0, 0.0, 0.0, 1.667045534764146E9, 0.0, 2022-10-29 14:12:14.764
161.0, -2556.1973103643395, -15838.695096494164, 4116.070312933065, -2045.2035597185604, 0.0, 0.0, 0.0, 0.0, 0.0, 0.0, 0.0, 0.0, 1.6670455347776895E9, 0.0, 2022-10-29 14:12:14.777
161.0, -2913.69247717876, -15595.556720574852, 4206.044826067053, -1567.7716712751426, 0.0, 0.0, 0.0, 0.0, 0.0, 0.0, 0.0, 0.0, 1.6670455347776895E9, 0.0, 2022-10-29 14:12:14.777
162.0, -2581.217241067905, -15538.641053099185, 4625.521354847122, -2011.2078691213392, 0.0, 0.0, 0.0, 0.0, 0.0, 0.0, 0.0, 0.0, 1.667045534793342E9, 0.0, 2022-10-29 14:12:14.793
162.0, -2195.0744405929, -15288.492234712932, 4797.917653154582, -2209.991031566169, 0.0, 0.0, 0.0, 0.0, 0.0, 0.0, 0.0, 0.0, 1.667045534793342E9, 0.0, 2022-10-29 14:12:14.793
163.0, -2541.4957636385225, -14878.270088373218, 5117.9969908623025, -2055.570562395733, 0.0, 0.0, 0.0, 0.0, 0.0, 0.0, 0.0, 0.0, 1.667045534794183E9, 0.0, 2022-10-29 14:12:14.794
163.0, -2890.6846126513556, -14603.65671442682, 5208.83916078601, -2540.7496535973623, 0.0, 0.0, 0.0, 0.0, 0.0, 0.0, 0.0, 0.0, 1.667045534794183E9, 0.0, 2022-10-29 14:12:14.794
164.0, -2613.4252594863065, -14594.252735988237, 5589.001861231867, -3003.315439716913, 0.0, 0.0, 0.0, 0.0, 0.0, 0.0, 0.0, 0.0, 1.6670455348077395E9, 0.0, 2022-10-29 14:12:14.807
164.0, -2249.5460834475234, -14367.108042229433, 5730.716020302847, -3218.9169322624803, 0.0, 0.0, 0.0, 0.0, 0.0, 0.0, 0.0, 0.0, 1.6670455348077395E9, 0.0, 2022-10-29 14:12:14.807
165.0, -2552.502289208118, -13906.573021785822, 6115.5031070439145, -3021.367936803028, 0.0, 0.0, 0.0, 0.0, 0.0, 0.0, 0.0, 0.0, 1.6670455348234372E9, 0.0, 2022-10-29 14:12:14.823
165.0, -2851.037933221087, -13577.977931878995, 6236.290655912831, -3395.232645723503, 0.0, 0.0, 0.0, 0.0, 0.0, 0.0, 0.0, 0.0, 1.6670455348234372E9, 0.0, 2022-10-29 14:12:14.823
166.0, -2593.8020044188015, -13591.61360711744, 6573.029377973173, -2941.177001953125, 0.0, 0.0, 0.0, 0.0, 0.0, 0.0, 0.0, 0.0, 1.6670455348241558E9, 0.0, 2022-10-29 14:12:14.824
166.0, -2267.1871915385127, -13402.226943311282, 6685.852809886448, -3203.7553778421134, 0.0, 0.0, 0.0, 0.0, 0.0, 0.0, 0.0, 0.0, 1.6670455348241558E9, 0.0, 2022-10-29 14:12:14.824
167.0, -2523.013178057503, -13864.645003382582, 7110.48105085548, -3033.4552934598178, 0.0, 0.0, 0.0, 0.0, 0.0, 0.0, 0.0, 0.0, 1.6670455348376963E9, 0.0, 2022-10-29 14:12:14.837
167.0, -2793.181680906564, -13520.813561056275, 7252.645867871121, -3381.2603794890456, 0.0, 0.0, 0.0, 0.0, 0.0, 0.0, 0.0, 0.0, 1.6670455348376963E9, 0.0, 2022-10-29 14:12:14.837
168.0, -2578.6180105987005, -13559.611283196602, 7553.73212365387, -2913.9019115762785, 0.0, 0.0, 0.0, 0.0, 0.0, 0.0, 0.0, 0.0, 1.6670455348534167E9, 0.0, 2022-10-29 14:12:14.853
168.0, -2283.4931553453207, -13387.925565880723, 7611.676263617352, -3189.5811570100486, 0.0, 0.0, 0.0, 0.0, 0.0, 0.0, 0.0, 0.0, 1.6670455348534167E9, 0.0, 2022-10-29 14:12:14.853
169.0, -2490.352631744463, -13820.667519803625, 8072.7423498546705, -2910.6668981146067, 0.0, 0.0, 0.0, 0.0, 0.0, 0.0, 0.0, 0.0, 1.6670455348540628E9, 0.0, 2022-10-29 14:12:14.854
169.0, -2757.4020580304787, -13464.890837018844, 8237.144612006843, -3285.021533929277, 0.0, 0.0, 0.0, 0.0, 0.0, 0.0, 0.0, 0.0, 1.6670455348540628E9, 0.0, 2022-10-29 14:12:14.854
170.0, -2531.431692857761, -13481.409975123126, 8528.8362391009, -2828.6546319862828, 0.0, 0.0, 0.0, 0.0, 0.0, 0.0, 0.0, 0.0, 1.6670455348677385E9, 0.0, 2022-10-29 14:12:14.867
170.0, -2221.463174680248, -13260.163103594445, 8586.593384066597, -3079.8225731104612, 0.0, 0.0, 0.0, 0.0, 0.0, 0.0, 0.0, 0.0, 1.6670455348677385E9, 0.0, 2022-10-29 14:12:14.867
171.0, -2412.487914666999, -13681.318847454619, 8107.50284999283, -2795.8519694749266, 0.0, 0.0, 0.0, 0.0, 0.0, 0.0, 0.0, 0.0, 1.6670455348833787E9, 0.0, 2022-10-29 14:12:14.883
171.0, -2759.690876803361, -13461.517447258811, 8232.905435407069, -2306.8563103685156, 0.0, 0.0, 0.0, 0.0, 0.0, 0.0, 0.0, 0.0, 1.6670455348833787E9, 0.0, 2022-10-29 14:12:14.883
172.0, -2530.683712866623, -13469.558232163545, 8516.103749701753, -1854.3003664803691, 0.0, 0.0, 0.0, 0.0, 0.0, 0.0, 0.0, 0.0, 1.6670455348840559E9, 0.0, 2022-10-29 14:12:14.884
172.0, -2191.7982882317156, -13188.495400743559, 8585.420925430488, -2041.7516320594586, 0.0, 0.0, 0.0, 0.0, 0.0, 0.0, 0.0, 0.0, 1.6670455348840559E9, 0.0, 2022-10-29 14:12:14.884
173.0, -2399.656317919027, -13644.851082986686, 8127.543103905395, -1822.5261764568277, 0.0, 0.0, 0.0, 0.0, 0.0, 0.0, 0.0, 0.0, 1.6670455348976667E9, 0.0, 2022-10-29 14:12:14.897
173.0, -2828.2619424909353, -13598.184611339588, 8233.374792851508, -1473.2307402952574, 0.0, 0.0, 0.0, 0.0, 0.0, 0.0, 0.0, 0.0, 1.6670455348976667E9, 0.0, 2022-10-29 14:12:14.897
174.0, -2582.7094611502253, -13548.565488677472, 8509.022249135654, -1922.6919169700705, 0.0, 0.0, 0.0, 0.0, 0.0, 0.0, 0.0, 0.0, 1.667045534913086E9, 0.0, 2022-10-29 14:12:14.913
174.0, -2223.5350792557, -13219.366404927801, 8566.323126306757, -2085.8712318367325, 0.0, 0.0, 0.0, 0.0, 0.0, 0.0, 0.0, 0.0, 1.667045534913086E9, 0.0, 2022-10-29 14:12:14.913
175.0, -2386.6639054729603, -13679.297431528568, 8184.4587713810615, -1815.9626520345919, 0.0, 0.0, 0.0, 0.0, 0.0, 0.0, 0.0, 0.0, 1.6670455349283807E9, 0.0, 2022-10-29 14:12:14.928
175.0, -1907.4106857511215, -13734.541363724042, 8216.29653970385, -1531.11317190947, 0.0, 0.0, 0.0, 0.0, 0.0, 0.0, 0.0, 0.0, 1.6670455349283807E9, 0.0, 2022-10-29 14:12:14.928
176.0, -1638.2182967904955, -13612.323303122073, 8500.078278391622, -1957.491686057765, 0.0, 0.0, 0.0, 0.0, 0.0, 0.0, 0.0, 0.0, 1.6670455349290044E9, 0.0, 2022-10-29 14:12:14.929
176.0, -1251.2302789255045, -13237.13840951724, 8559.33512323955, -2067.0296158599667, 0.0, 0.0, 0.0, 0.0, 0.0, 0.0, 0.0, 0.0, 1.6670455349290044E9, 0.0, 2022-10-29 14:12:14.929
177.0, -1425.4479085113853, -13709.904772765934, 8166.531560943462, -1837.7625288763084, 0.0, 0.0, 0.0, 0.0, 0.0, 0.0, 0.0, 0.0, 1.6670455349433794E9, 0.0, 2022-10-29 14:12:14.943
177.0, -969.5092251133174, -13805.49474568339, 8227.933238415979, -1587.267769744154, 0.0, 0.0, 0.0, 0.0, 0.0, 0.0, 0.0, 0.0, 1.6670455349433794E9, 0.0, 2022-10-29 14:12:14.943
178.0, -698.7124190717004, -13664.498647403903, 8484.398747827392, -1988.6226132889278, 0.0, 0.0, 0.0, 0.0, 0.0, 0.0, 0.0, 0.0, 1.6670455349441226E9, 0.0, 2022-10-29 14:12:14.944
178.0, -302.75986101292074, -13262.094761921559, 8533.13899399992, -2121.2693849173374, 0.0, 0.0, 0.0, 0.0, 0.0, 0.0, 0.0, 0.0, 1.6670455349441226E9, 0.0, 2022-10-29 14:12:14.944
179.0, -453.719052774366, -13715.163072103634, 8196.037501643877, -1832.436911339406, 0.0, 0.0, 0.0, 0.0, 0.0, 0.0, 0.0, 0.0, 1.6670455349578533E9, 0.0, 2022-10-29 14:12:14.957
179.0, -19.281054221559316, -13833.865626747254, 8215.006274219137, -1620.7922329469584, 0.0, 0.0, 0.0, 0.0, 0.0, 0.0, 0.0, 0.0, 1.6670455349578533E9, 0.0, 2022-10-29 14:12:14.957
180.0, 272.70228506904095, -13669.121163749136, 8483.963049482554, -1993.2862685336731, 0.0, 0.0, 0.0, 0.0, 0.0, 0.0, 0.0, 0.0, 1.667045534973348E9, 0.0, 2022-10-29 14:12:14.973
180.0, 664.5933117759414, -13265.827182077337, 8519.127458815929, -2100.299765865784, 0.0, 0.0, 0.0, 0.0, 0.0, 0.0, 0.0, 0.0, 1.667045534973348E9, 0.0, 2022-10-29 14:12:14.973
181.0, 566.0862168930471, -13662.359424629249, 8234.122772842646, -1796.025245370809, 0.0, 0.0, 0.0, 0.0, 0.0, 0.0, 0.0, 0.0, 1.6670455349740407E9, 0.0, 2022-10-29 14:12:14.974
181.0, 961.7564125051722, -13844.154091525357, 8226.371830184478, -1641.1372887059115, 0.0, 0.0, 0.0, 0.0, 0.0, 0.0, 0.0, 0.0, 1.6670455349740407E9, 0.0, 2022-10-29 14:12:14.974
182.0, 1247.752171966713, -13665.717854789458, 8466.441618190147, -2006.6302315755747, 0.0, 0.0, 0.0, 0.0, 0.0, 0.0, 0.0, 0.0, 1.6670455349877048E9, 0.0, 2022-10-29 14:12:14.987
182.0, 1661.031686520204, -13225.885050550569, 8498.198978663888, -2068.2862222450785, 0.0, 0.0, 0.0, 0.0, 0.0, 0.0, 0.0, 0.0, 1.6670455349877048E9, 0.0, 2022-10-29 14:12:14.987
183.0, 1584.59000137588, -13615.404980685562, 8271.147782403976, -1780.7963727512397, 0.0, 0.0, 0.0, 0.0, 0.0, 0.0, 0.0, 0.0, 1.6670455350034645E9, 0.0, 2022-10-29 14:12:15.003
183.0, 1916.016195549164, -13874.402402366977, 8204.766428140458, -1653.0451301648282, 0.0, 0.0, 0.0, 0.0, 0.0, 0.0, 0.0, 0.0, 1.6670455350034645E9, 0.0, 2022-10-29 14:12:15.003
184.0, 2220.834871487692, -13660.915823246352, 8459.747197269462, -2021.2158414027654, 0.0, 0.0, 0.0, 0.0, 0.0, 0.0, 0.0, 0.0, 1.66704553500439E9, 0.0, 2022-10-29 14:12:15.004
184.0, 2653.5169870113023, -13182.591968663502, 8487.813276486937, -2060.028523142915, 0.0, 0.0, 0.0, 0.0, 0.0, 0.0, 0.0, 0.0, 1.66704553500439E9, 0.0, 2022-10-29 14:12:15.004
185.0, 2576.1814657775685, -13588.754453601316, 8272.322110990062, -1755.1369191552512, 0.0, 0.0, 0.0, 0.0, 0.0, 0.0, 0.0, 0.0, 1.6670455350177064E9, 0.0, 2022-10-29 14:12:15.017
185.0, 2865.6721617477015, -13922.632152195554, 8215.64579711156, -1692.4337564981543, 0.0, 0.0, 0.0, 0.0, 0.0, 0.0, 0.0, 0.0, 1.6670455350177064E9, 0.0, 2022-10-29 14:12:15.017
186.0, 3166.4255664343946, -13707.376600395888, 8446.246158429421, -2037.6863608076237, 0.0, 0.0, 0.0, 0.0, 0.0, 0.0, 0.0, 0.0, 1.6670455350338635E9, 0.0, 2022-10-29 14:12:15.033
186.0, 3555.8594788704067, -13245.317570720334, 8400.750275468454, -2096.1559567148797, 0.0, 0.0, 0.0, 0.0, 0.0, 0.0, 0.0, 0.0, 1.6670455350338635E9, 0.0, 2022-10-29 14:12:15.033
187.0, 3535.3592172632925, -13642.545434664004, 8268.17643188918, -1760.529854891356, 0.0, 0.0, 0.0, 0.0, 0.0, 0.0, 0.0, 0.0, 1.6670455350483181E9, 0.0, 2022-10-29 14:12:15.048
187.0, 3857.5964772454463, -13971.437846617308, 8304.027112864424, -1698.526053525973, 0.0, 0.0, 0.0, 0.0, 0.0, 0.0, 0.0, 0.0, 1.6670455350483181E9, 0.0, 2022-10-29 14:12:15.048
188.0, 4123.643610343337, -13749.364457198419, 8452.71244545281, -2059.4450987498276, 0.0, 0.0, 0.0, 0.0, 0.0, 0.0, 0.0, 0.0, 1.6670455350491395E9, 0.0, 2022-10-29 14:12:15.049
188.0, 4506.689773655031, -14237.241886218078, 8366.941579869017, -2134.7255449579097, 0.0, 0.0, 0.0, 0.0, 0.0, 0.0, 0.0, 0.0, 1.6670455350491395E9, 0.0, 2022-10-29 14:12:15.049
189.0, 4510.743825206999, -14589.61712999316, 8282.466589619871, -1720.6326021640562, 0.0, 0.0, 0.0, 0.0, 0.0, 0.0, 0.0, 0.0, 1.6670455350633073E9, 0.0, 2022-10-29 14:12:15.063
189.0, 4847.394659618381, -14942.085871267132, 8325.729752307292, -1712.1542489645071, 0.0, 0.0, 0.0, 0.0, 0.0, 0.0, 0.0, 0.0, 1.6670455350633073E9, 0.0, 2022-10-29 14:12:15.063
190.0, 5106.653874296695, -14714.67938451143, 8443.044804067351, -2067.1754719582386, 0.0, 0.0, 0.0, 0.0, 0.0, 0.0, 0.0, 0.0, 1.667045535064161E9, 0.0, 2022-10-29 14:12:15.064
190.0, 5494.042061456945, -15201.375005145092, 8336.337978531606, -2125.07660307223, 0.0, 0.0, 0.0, 0.0, 0.0, 0.0, 0.0, 0.0, 1.667045535064161E9, 0.0, 2022-10-29 14:12:15.064
191.0, 5534.07395058265, -15542.317374755628, 8303.552145570051, -1741.4975040168501, 0.0, 0.0, 0.0, 0.0, 0.0, 0.0, 0.0, 0.0, 1.667045535077674E9, 0.0, 2022-10-29 14:12:15.077
191.0, 5797.527463061269, -15963.345962017309, 8308.99370000558, -1739.919266235549, 0.0, 0.0, 0.0, 0.0, 0.0, 0.0, 0.0, 0.0, 1.667045535077674E9, 0.0, 2022-10-29 14:12:15.077
192.0, 6066.68993282225, -15719.353018958122, 8427.21006765496, -2077.2133634393103, 0.0, 0.0, 0.0, 0.0, 0.0, 0.0, 0.0, 0.0, 1.6670455350932922E9, 0.0, 2022-10-29 14:12:15.093
192.0, 6484.442367722746, -16171.338628103025, 8361.847836129367, -2091.0210740757175, 0.0, 0.0, 0.0, 0.0, 0.0, 0.0, 0.0, 0.0, 1.6670455350932922E9, 0.0, 2022-10-29 14:12:15.093
193.0, 6514.787915963214, -16537.469223915134, 8334.619494501967, -1721.2309861569665, 0.0, 0.0, 0.0, 0.0, 0.0, 0.0, 0.0, 0.0, 1.6670455350940354E9, 0.0, 2022-10-29 14:12:15.094
193.0, 6710.8147721407, -16054.03853594279, 8271.47315370012, -1757.7230599746108, 0.0, 0.0, 0.0, 0.0, 0.0, 0.0, 0.0, 0.0, 1.6670455350940354E9, 0.0, 2022-10-29 14:12:15.094
194.0, 6991.967361159623, -15786.832033858635, 8409.922380109783, -2113.918611554429, 0.0, 0.0, 0.0, 0.0, 0.0, 0.0, 0.0, 0.0, 1.6670455351076596E9, 0.0, 2022-10-29 14:12:15.107
194.0, 7408.470669474918, -16239.733918492682, 8350.454230914358, -2128.5191809814423, 0.0, 0.0, 0.0, 0.0, 0.0, 0.0, 0.0, 0.0, 1.6670455351076596E9, 0.0, 2022-10-29 14:12:15.107
195.0, 7470.971877534408, -16588.455280011054, 8365.75042173313, -1753.534372024238, 0.0, 0.0, 0.0, 0.0, 0.0, 0.0, 0.0, 0.0, 1.6670455351233172E9, 0.0, 2022-10-29 14:12:15.123
195.0, 7689.46805264568, -17050.039342392236, 8281.757878578268, -1822.1260071615689, 0.0, 0.0, 0.0, 0.0, 0.0, 0.0, 0.0, 0.0, 1.6670455351233172E9, 0.0, 2022-10-29 14:12:15.123
196.0, 7966.858302309178, -16786.767215061467, 8398.336170047056, -2116.882482269313, 0.0, 0.0, 0.0, 0.0, 0.0, 0.0, 0.0, 0.0, 1.6670455351240747E9, 0.0, 2022-10-29 14:12:15.124
196.0, 8372.497201253194, -17235.914240140002, 8327.809136682656, -2157.2060835915618, 0.0, 0.0, 0.0, 0.0, 0.0, 0.0, 0.0, 0.0, 1.6670455351240747E9, 0.0, 2022-10-29 14:12:15.124
197.0, 8480.542910973076, -17520.197125421837, 8372.654277051333, -1685.0885929851793, 0.0, 0.0, 0.0, 0.0, 0.0, 0.0, 0.0, 0.0, 1.667045535137664E9, 0.0, 2022-10-29 14:12:15.137
197.0, 8707.435161484871, -17968.51202276023, 8299.619640766643, -1741.1665228707716, 0.0, 0.0, 0.0, 0.0, 0.0, 0.0, 0.0, 0.0, 1.667045535137664E9, 0.0, 2022-10-29 14:12:15.137
198.0, 8975.438262259588, -17712.33822554536, 8412.45055247983, -2097.5453295484185, 0.0, 0.0, 0.0, 0.0, 0.0, 0.0, 0.0, 0.0, 1.66704553515342E9, 0.0, 2022-10-29 14:12:15.153
198.0, 9391.126272384543, -18146.48825180158, 8309.734200196806, -2114.6478920457885, 0.0, 0.0, 0.0, 0.0, 0.0, 0.0, 0.0, 0.0, 1.66704553515342E9, 0.0, 2022-10-29 14:12:15.153
199.0, 9524.446226004977, -18413.47409978835, 8428.778955686372, -1723.914364375174, 0.0, 0.0, 0.0, 0.0, 0.0, 0.0, 0.0, 0.0, 1.6670455351541753E9, 0.0, 2022-10-29 14:12:15.154
199.0, 9715.887964836787, -17932.751099383924, 8327.395877737552, -1760.6831907895394, 0.0, 0.0, 0.0, 0.0, 0.0, 0.0, 0.0, 0.0, 1.6670455351541753E9, 0.0, 2022-10-29 14:12:15.154
200.0, 9977.727710484527, -17665.07710980531, 8393.17884800816, -2108.3891694699414, 0.0, 0.0, 0.0, 0.0, 0.0, 0.0, 0.0, 0.0, 1.6670455351683846E9, 0.0, 2022-10-29 14:12:15.168
200.0, 10400.132580929901, -18074.431599355303, 8289.07125294162, -2084.949346497655, 0.0, 0.0, 0.0, 0.0, 0.0, 0.0, 0.0, 0.0, 1.6670455351683846E9, 0.0, 2022-10-29 14:12:15.168
0.0, -2203.6088922917843, -1691.893340954557, -3342.043788553681, -1617.1084314906038, 0.0, 0.0, 0.0, 0.0, 0.0, 0.0, 0.0, 0.0, 1.6670455351691723E9, 0.0, 2022-10-29 14:12:15.169
101.0, -2094.213078687899, -1321.3964119441807, -3460.8622800959274, -1804.9280772153288, 0.0, 0.0, 0.0, 0.0, 0.0, 0.0, 0.0, 0.0, 1.6670455351826372E9, 0.0, 2022-10-29 14:12:15.182
101.0, -1830.3238678644411, -1053.441929868888, -3384.125142855104, -2114.472116747871, 0.0, 0.0, 0.0, 0.0, 0.0, 0.0, 0.0, 0.0, 1.6670455351826372E9, 0.0, 2022-10-29 14:12:15.182
102.0, -1406.9802825301886, -1462.2279546256177, -3501.184011468198, -2112.626476119738, 0.0, 0.0, 0.0, 0.0, 0.0, 0.0, 0.0, 0.0, 1.667045535198395E9, 0.0, 2022-10-29 14:12:15.198
102.0, -1261.5580126531422, -1736.8020596224815, -3312.666874401737, -1655.1768731395714, 0.0, 0.0, 0.0, 0.0, 0.0, 0.0, 0.0, 0.0, 1.667045535198395E9, 0.0, 2022-10-29 14:12:15.198
103.0, -1174.3846845859662, -1435.2726256949827, -3453.8686671787873, -1822.9506551017985, 0.0, 0.0, 0.0, 0.0, 0.0, 0.0, 0.0, 0.0, 1.6670455351990948E9, 0.0, 2022-10-29 14:12:15.199
103.0, -900.4613221813925, -1128.2474087825976, -3394.0545772374608, -2139.5743252504617, 0.0, 0.0, 0.0, 0.0, 0.0, 0.0, 0.0, 0.0, 1.6670455351990948E9, 0.0, 2022-10-29 14:12:15.199
104.0, -467.91384305618703, -1513.3411673200317, -3515.986535492819, -2186.2258372977376, 0.0, 0.0, 0.0, 0.0, 0.0, 0.0, 0.0, 0.0, 1.6670455352126617E9, 0.0, 2022-10-29 14:12:15.212
104.0, -281.56584796402603, -1769.0512169403955, -3299.1172168622725, -2664.063504886348, 0.0, 0.0, 0.0, 0.0, 0.0, 0.0, 0.0, 0.0, 1.6670455352126617E9, 0.0, 2022-10-29 14:12:15.212
105.0, -182.43605973850936, -1425.2010751143098, -3451.06374221202, -2781.0905843498185, 0.0, 0.0, 0.0, 0.0, 0.0, 0.0, 0.0, 0.0, 1.6670455352283626E9, 0.0, 2022-10-29 14:12:15.228
105.0, 102.99871472967789, -1088.4286939543672, -3401.302503351588, -3124.159087085165, 0.0, 0.0, 0.0, 0.0, 0.0, 0.0, 0.0, 0.0, 1.6670455352283626E9, 0.0, 2022-10-29 14:12:15.228
106.0, 549.5670787887648, -1437.163145122584, -3520.8484054352157, -3154.841226321645, 0.0, 0.0, 0.0, 0.0, 0.0, 0.0, 0.0, 0.0, 1.667045535229103E9, 0.0, 2022-10-29 14:12:15.229
106.0, 764.9292177371681, -1672.9769269786775, -3270.660318099428, -3585.0026492751203, 0.0, 0.0, 0.0, 0.0, 0.0, 0.0, 0.0, 0.0, 1.667045535229103E9, 0.0, 2022-10-29 14:12:15.229
107.0, 790.4315955350175, -1424.7111482201144, -3457.309375138022, -3794.352899044752, 0.0, 0.0, 0.0, 0.0, 0.0, 0.0, 0.0, 0.0, 1.6670455352426944E9, 0.0, 2022-10-29 14:12:15.242
107.0, 1079.553911359515, -1096.9668855532072, -3413.4534383076243, -4104.57760036923, 0.0, 0.0, 0.0, 0.0, 0.0, 0.0, 0.0, 0.0, 1.6670455352426944E9, 0.0, 2022-10-29 14:12:15.242
108.0, 1533.4487394317985, -1439.1677314988337, -3531.009713614825, -4151.083256318234, 0.0, 0.0, 0.0, 0.0, 0.0, 0.0, 0.0, 0.0, 1.6670455352583997E9, 0.0, 2022-10-29 14:12:15.258
108.0, 1733.3239526636899, -1694.6982659213245, -3256.9498448618688, -4590.130681566428, 0.0, 0.0, 0.0, 0.0, 0.0, 0.0, 0.0, 0.0, 1.6670455352583997E9, 0.0, 2022-10-29 14:12:15.258
109.0, 1722.1734409458004, -1504.9469618694857, -3474.987882228568, -4756.857291541062, 0.0, 0.0, 0.0, 0.0, 0.0, 0.0, 0.0, 0.0, 1.6670455352591145E9, 0.0, 2022-10-29 14:12:15.259
109.0, 2005.50639163889, -1162.3440766786225, -3431.7116298913024, -5109.01001126878, 0.0, 0.0, 0.0, 0.0, 0.0, 0.0, 0.0, 0.0, 1.6670455352591145E9, 0.0, 2022-10-29 14:12:15.259
110.0, 2453.398680282291, -1525.6042992747389, -3557.9482129956596, -5153.185709545389, 0.0, 0.0, 0.0, 0.0, 0.0, 0.0, 0.0, 0.0, 1.6670455352726498E9, 0.0, 2022-10-29 14:12:15.272
110.0, 2667.2050208491273, -1783.8462611651048, -3231.267951866146, -5550.095681992825, 0.0, 0.0, 0.0, 0.0, 0.0, 0.0, 0.0, 0.0, 1.6670455352726498E9, 0.0, 2022-10-29 14:12:15.272
111.0, 2635.619695773348, -1595.5684776958078, -3474.976662528701, -5787.637297628447, 0.0, 0.0, 0.0, 0.0, 0.0, 0.0, 0.0, 0.0, 1.6670455352883997E9, 0.0, 2022-10-29 14:12:15.288
111.0, 2890.353631505277, -1316.196081055794, -3447.9951542983763, -6167.151125431992, 0.0, 0.0, 0.0, 0.0, 0.0, 0.0, 0.0, 0.0, 1.6670455352883997E9, 0.0, 2022-10-29 14:12:15.288
112.0, 3249.060525905341, -843.7775285029784, -3609.502733884845, -6307.561929368414, 0.0, 0.0, 0.0, 0.0, 0.0, 0.0, 0.0, 0.0, 1.6670455352891462E9, 0.0, 2022-10-29 14:12:15.289
112.0, 3472.6354851564392, -1114.095627350267, -3270.6902372990735, -6745.300389632117, 0.0, 0.0, 0.0, 0.0, 0.0, 0.0, 0.0, 0.0, 1.6670455352891462E9, 0.0, 2022-10-29 14:12:15.289
113.0, 3576.0250194314867, -699.1312878667377, -3468.3532997071743, -6800.1217131325975, 0.0, 0.0, 0.0, 0.0, 0.0, 0.0, 0.0, 0.0, 1.6670455353026948E9, 0.0, 2022-10-29 14:12:15.302
113.0, 3785.4687667000107, -497.7657245025039, -3456.466027698014, -7240.154602019116, 0.0, 0.0, 0.0, 0.0, 0.0, 0.0, 0.0, 0.0, 1.6670455353026948E9, 0.0, 2022-10-29 14:12:15.302
114.0, 4020.4934296654537, -200.61010357318446, -3693.1231569941156, -7461.055532801896, 0.0, 0.0, 0.0, 0.0, 0.0, 0.0, 0.0, 0.0, 1.6670455353185253E9, 0.0, 2022-10-29 14:12:15.318
114.0, 4389.789850790054, -223.85545174777508, -3292.669629338663, -7836.651815401856, 0.0, 0.0, 0.0, 0.0, 0.0, 0.0, 0.0, 0.0, 1.6670455353185253E9, 0.0, 2022-10-29 14:12:15.318
115.0, 4744.6614777855575, -318.5852476754226, -3397.837486042641, -7605.686813838314, 0.0, 0.0, 0.0, 0.0, 0.0, 0.0, 0.0, 0.0, 1.667045535319111E9, 0.0, 2022-10-29 14:12:15.319
115.0, 4873.383224410471, -265.5777756534517, -3445.7755236746743, -7140.968715294264, 0.0, 0.0, 0.0, 0.0, 0.0, 0.0, 0.0, 0.0, 1.667045535319111E9, 0.0, 2022-10-29 14:12:15.319
116.0, 5051.647425748408, -87.59406681219116, -3704.094153514132, -7503.129407303408, 0.0, 0.0, 0.0, 0.0, 0.0, 0.0, 0.0, 0.0, 1.667045535332624E9, 0.0, 2022-10-29 14:12:15.332
116.0, 5519.45281170588, 36.46963441791013, -3222.7353701172397, -7644.155424782541, 0.0, 0.0, 0.0, 0.0, 0.0, 0.0, 0.0, 0.0, 1.667045535332624E9, 0.0, 2022-10-29 14:12:15.332
117.0, 5905.952772626653, 16.219946107827127, -3376.420948946383, -7376.905913848896, 0.0, 0.0, 0.0, 0.0, 0.0, 0.0, 0.0, 0.0, 1.6670455353484728E9, 0.0, 2022-10-29 14:12:15.348
117.0, 5958.874226949643, -83.42594831157476, -3435.4515298469923, -7023.472278386354, 0.0, 0.0, 0.0, 0.0, 0.0, 0.0, 0.0, 0.0, 1.6670455353484728E9, 0.0, 2022-10-29 14:12:15.348
118.0, 6100.902537616901, 28.593405111227185, -3704.8253039554693, -7448.137918354943, 0.0, 0.0, 0.0, 0.0, 0.0, 0.0, 0.0, 0.0, 1.6670455353491557E9, 0.0, 2022-10-29 14:12:15.349
118.0, 6589.2549339309335, 159.9125122553669, -4177.935738000087, -7616.80553640658, 0.0, 0.0, 0.0, 0.0, 0.0, 0.0, 0.0, 0.0, 1.6670455353491557E9, 0.0, 2022-10-29 14:12:15.349
119.0, 6947.06612229161, 64.26270093861967, -4352.362801983487, -7332.004674980883, 0.0, 0.0, 0.0, 0.0, 0.0, 0.0, 0.0, 0.0, 1.6670455353628256E9, 0.0, 2022-10-29 14:12:15.362
119.0, 6979.1488540614955, -40.850927216000855, -4426.293144307565, -6985.355218037963, 0.0, 0.0, 0.0, 0.0, 0.0, 0.0, 0.0, 0.0, 1.6670455353628256E9, 0.0, 2022-10-29 14:12:15.362
120.0, 7140.534886899404, 92.51951505383477, -4668.287110840436, -7391.919742221013, 0.0, 0.0, 0.0, 0.0, 0.0, 0.0, 0.0, 0.0, 1.667045535378338E9, 0.0, 2022-10-29 14:12:15.378
120.0, 6674.433025371749, 241.58444748772308, -5112.439499528147, -7543.84008827107, 0.0, 0.0, 0.0, 0.0, 0.0, 0.0, 0.0, 0.0, 1.667045535378338E9, 0.0, 2022-10-29 14:12:15.378
121.0, 6921.509515944403, 54.63619845267385, -5377.633935436141, -7278.475486915093, 0.0, 0.0, 0.0, 0.0, 0.0, 0.0, 0.0, 0.0, 1.6670455353790576E9, 0.0, 2022-10-29 14:12:15.379
121.0, 6983.354371561669, -31.164586330763996, -5412.527202022728, -6975.466922555119, 0.0, 0.0, 0.0, 0.0, 0.0, 0.0, 0.0, 0.0, 1.6670455353790576E9, 0.0, 2022-10-29 14:12:15.379
122.0, 7180.490108076017, 166.7303498745896, -5643.492203586269, -7367.041927715763, 0.0, 0.0, 0.0, 0.0, 0.0, 0.0, 0.0, 0.0, 1.667045535392702E9, 0.0, 2022-10-29 14:12:15.392
122.0, 6695.703706369735, 272.4049630225636, -6060.388201396912, -7525.088229893241, 0.0, 0.0, 0.0, 0.0, 0.0, 0.0, 0.0, 0.0, 1.667045535392702E9, 0.0, 2022-10-29 14:12:15.392
123.0, 6892.904891133308, 2.3449172722175717, -6357.248370229732, -7339.260080894921, 0.0, 0.0, 0.0, 0.0, 0.0, 0.0, 0.0, 0.0, 1.6670455354084718E9, 0.0, 2022-10-29 14:12:15.408
123.0, 6994.957411174197, -19.641954567283392, -6380.62648485275, -6962.893378904089, 0.0, 0.0, 0.0, 0.0, 0.0, 0.0, 0.0, 0.0, 1.6670455354084718E9, 0.0, 2022-10-29 14:12:15.408
124.0, 7223.5083073163405, 221.35158872744069, -6597.903452578466, -7341.666706516407, 0.0, 0.0, 0.0, 0.0, 0.0, 0.0, 0.0, 0.0, 1.66704553540932E9, 0.0, 2022-10-29 14:12:15.409
124.0, 6765.028361898381, 358.31794480467215, -6991.0884846700355, -7514.246259921696, 0.0, 0.0, 0.0, 0.0, 0.0, 0.0, 0.0, 0.0, 1.66704553540932E9, 0.0, 2022-10-29 14:12:15.409
125.0, 6873.081551418174, -38.97349743824452, -7368.248045451473, -7347.083951602224, 0.0, 0.0, 0.0, 0.0, 0.0, 0.0, 0.0, 0.0, 1.66704553542271E9, 0.0, 2022-10-29 14:12:15.422
125.0, 6995.378149919212, -5.910911879967898, -7383.282443273347, -6973.133224982768, 0.0, 0.0, 0.0, 0.0, 0.0, 0.0, 0.0, 0.0, 1.66704553542271E9, 0.0, 2022-10-29 14:12:15.422
126.0, 7302.549222929869, 337.4623927017674, -7580.199395640288, -7269.127606975846, 0.0, 0.0, 0.0, 0.0, 0.0, 0.0, 0.0, 0.0, 1.6670455354384592E9, 0.0, 2022-10-29 14:12:15.438
126.0, 6857.091609157622, 463.2202686117962, -7939.313939135522, -7327.688830432016, 0.0, 0.0, 0.0, 0.0, 0.0, 0.0, 0.0, 0.0, 1.6670455354384592E9, 0.0, 2022-10-29 14:12:15.438
127.0, 6840.058234809432, 887.5119185848162, -8358.70445021661, -7425.934132318012, 0.0, 0.0, 0.0, 0.0, 0.0, 0.0, 0.0, 0.0, 1.6670455354390736E9, 0.0, 2022-10-29 14:12:15.439
127.0, 6986.327592026442, 973.337012717966, -8376.199702209327, -6988.105914455373, 0.0, 0.0, 0.0, 0.0, 0.0, 0.0, 0.0, 0.0, 1.6670455354390736E9, 0.0, 2022-10-29 14:12:15.439
128.0, 7343.5834052436985, 1396.2953883567825, -8544.050152120646, -7223.19602567004, 0.0, 0.0, 0.0, 0.0, 0.0, 0.0, 0.0, 0.0, 1.6670455354527411E9, 0.0, 2022-10-29 14:12:15.452
128.0, 6859.429046629928, 1446.2417522650212, -8890.12366447039, -7407.9489534311, 0.0, 0.0, 0.0, 0.0, 0.0, 0.0, 0.0, 0.0, 1.6670455354527411E9, 0.0, 2022-10-29 14:12:15.452
129.0, 6689.512301993091, 1675.912748443894, -9367.123594468925, -7553.765782753471, 0.0, 0.0, 0.0, 0.0, 0.0, 0.0, 0.0, 0.0, 1.667045535468387E9, 0.0, 2022-10-29 14:12:15.468
129.0, 6890.810547158122, 1821.8679540646262, -9364.07370605506, -8018.332415349316, 0.0, 0.0, 0.0, 0.0, 0.0, 0.0, 0.0, 0.0, 1.667045535468387E9, 0.0, 2022-10-29 14:12:15.468
130.0, 7263.949715487193, 2284.6151253320277, -9527.612051317468, -8224.266266509425, 0.0, 0.0, 0.0, 0.0, 0.0, 0.0, 0.0, 0.0, 1.6670455354691849E9, 0.0, 2022-10-29 14:12:15.469
130.0, 6775.206499627791, 2303.4679610086605, -9859.081254340243, -8359.50291885715, 0.0, 0.0, 0.0, 0.0, 0.0, 0.0, 0.0, 0.0, 1.6670455354691849E9, 0.0, 2022-10-29 14:12:15.469
131.0, 6582.4464460616, 2501.9968102565035, -9434.984079164919, -8620.415169315878, 0.0, 0.0, 0.0, 0.0, 0.0, 0.0, 0.0, 0.0, 1.6670455354991128E9, 0.0, 2022-10-29 14:12:15.499
131.0, 6829.132117088884, 2733.1282373680733, -9419.809435094707, -9022.009366457816, 0.0, 0.0, 0.0, 0.0, 0.0, 0.0, 0.0, 0.0, 1.6670455354991128E9, 0.0, 2022-10-29 14:12:15.499
132.0, 7281.4711467796005, 2285.9783188658766, -9496.417545787059, -9162.498708293308, 0.0, 0.0, 0.0, 0.0, 0.0, 0.0, 0.0, 0.0, 1.6670455354997904E9, 0.0, 2022-10-29 14:12:15.499
132.0, 6832.157696153037, 2364.261904738378, -9791.28060804354, -9314.66588774044, 0.0, 0.0, 0.0, 0.0, 0.0, 0.0, 0.0, 0.0, 1.6670455354997904E9, 0.0, 2022-10-29 14:12:15.499
133.0, 6587.330755403731, 2527.826429300476, -9478.946603144053, -9565.981554912869, 0.0, 0.0, 0.0, 0.0, 0.0, 0.0, 0.0, 0.0, 1.667045535500481E9, 0.0, 2022-10-29 14:12:15.500
133.0, 6873.977257457562, 2792.2953246170655, -9405.84464866016, -9997.128441504668, 0.0, 0.0, 0.0, 0.0, 0.0, 0.0, 0.0, 0.0, 1.667045535500481E9, 0.0, 2022-10-29 14:12:15.500
134.0, 7359.552778054494, 2390.6300693759695, -9466.77509873826, -10115.402777603362, 0.0, 0.0, 0.0, 0.0, 0.0, 0.0, 0.0, 0.0, 1.6670455355126588E9, 0.0, 2022-10-29 14:12:15.512
134.0, 6924.316310861148, 2469.837410537526, -9754.266818182077, -10286.265716928989, 0.0, 0.0, 0.0, 0.0, 0.0, 0.0, 0.0, 0.0, 1.6670455355126588E9, 0.0, 2022-10-29 14:12:15.512
135.0, 6601.059928141069, 2556.072023715824, -9512.082116751466, -10549.90061455546, 0.0, 0.0, 0.0, 0.0, 0.0, 0.0, 0.0, 0.0, 1.667045535528088E9, 0.0, 2022-10-29 14:12:15.528
135.0, 6929.866322395392, 2866.7361632850952, -9400.006664829329, -10953.263784376439, 0.0, 0.0, 0.0, 0.0, 0.0, 0.0, 0.0, 0.0, 1.667045535528088E9, 0.0, 2022-10-29 14:12:15.528
136.0, 6476.422152267769, 2542.501796726603, -9432.745749041438, -11064.533287858125, 0.0, 0.0, 0.0, 0.0, 0.0, 0.0, 0.0, 0.0, 1.6670455355433977E9, 0.0, 2022-10-29 14:12:15.543
136.0, 6032.759690474253, 2588.5773641807027, -9705.606979858596, -11199.567985608242, 0.0, 0.0, 0.0, 0.0, 0.0, 0.0, 0.0, 0.0, 1.6670455355433977E9, 0.0, 2022-10-29 14:12:15.543
137.0, 5550.59495863691, 2440.5951327839866, -9544.585587266367, -11606.762682933826, 0.0, 0.0, 0.0, 0.0, 0.0, 0.0, 0.0, 0.0, 1.6670455355441775E9, 0.0, 2022-10-29 14:12:15.544
137.0, 5938.218759494368, 2833.997079072986, -9408.791689825244, -11986.044636940118, 0.0, 0.0, 0.0, 0.0, 0.0, 0.0, 0.0, 0.0, 1.6670455355441775E9, 0.0, 2022-10-29 14:12:15.544
138.0, 5575.934650786687, 2589.934947864618, -9418.612667108886, -12021.057580325287, 0.0, 0.0, 0.0, 0.0, 0.0, 0.0, 0.0, 0.0, 1.6670455355583768E9, 0.0, 2022-10-29 14:12:15.558
138.0, 5104.81010361854, 2592.687514232006, -9669.726379683707, -12180.569923285395, 0.0, 0.0, 0.0, 0.0, 0.0, 0.0, 0.0, 0.0, 1.6670455355583768E9, 0.0, 2022-10-29 14:12:15.558
139.0, 5475.759560523555, 2334.954178735614, -9576.842224384192, -12644.992569732945, 0.0, 0.0, 0.0, 0.0, 0.0, 0.0, 0.0, 0.0, 1.6670455355590675E9, 0.0, 2022-10-29 14:12:15.559
139.0, 5934.336743340362, 2804.276094125118, -9428.878692487255, -12980.334439159837, 0.0, 0.0, 0.0, 0.0, 0.0, 0.0, 0.0, 0.0, 1.6670455355590675E9, 0.0, 2022-10-29 14:12:15.559
140.0, 5672.027640248183, 2671.5358249978162, -9398.377938398626, -12958.35317717027, 0.0, 0.0, 0.0, 0.0, 0.0, 0.0, 0.0, 0.0, 1.6670455355726757E9, 0.0, 2022-10-29 14:12:15.572
140.0, 5213.222323534079, 2683.2903305585496, -9622.530712192878, -13098.328282761853, 0.0, 0.0, 0.0, 0.0, 0.0, 0.0, 0.0, 0.0, 1.6670455355726757E9, 0.0, 2022-10-29 14:12:15.572
141.0, 5405.935628350824, 2241.28838434536, -9615.398722977377, -12681.677248398308, 0.0, 0.0, 0.0, 0.0, 0.0, 0.0, 0.0, 0.0, 1.6670455356048963E9, 0.0, 2022-10-29 14:12:15.604
141.0, 5889.383145872969, 1775.3155493661761, -9439.00073171733, -13025.28803662723, 0.0, 0.0, 0.0, 0.0, 0.0, 0.0, 0.0, 0.0, 1.6670455356048963E9, 0.0, 2022-10-29 14:12:15.604
142.0, 5653.103746472392, 1683.669300951995, -9387.399462078698, -12977.00779814925, 0.0, 0.0, 0.0, 0.0, 0.0, 0.0, 0.0, 0.0, 1.6670455356054664E9, 0.0, 2022-10-29 14:12:15.605
142.0, 6061.182930137496, 1590.5102630057372, -9625.767595604528, -13146.389737092424, 0.0, 0.0, 0.0, 0.0, 0.0, 0.0, 0.0, 0.0, 1.6670455356054664E9, 0.0, 2022-10-29 14:12:15.605
143.0, 6168.405861867126, 2052.193432735745, -9664.772882192396, -12775.425320587587, 0.0, 0.0, 0.0, 0.0, 0.0, 0.0, 0.0, 0.0, 1.6670455356061733E9, 0.0, 2022-10-29 14:12:15.606
143.0, 5770.420668182429, 1684.0862997970544, -9459.083994479384, -13058.038340539206, 0.0, 0.0, 0.0, 0.0, 0.0, 0.0, 0.0, 0.0, 1.6670455356061733E9, 0.0, 2022-10-29 14:12:15.606
144.0, 5574.704223701265, 1629.1322098481469, -9413.533882969059, -13017.74652836658, 0.0, 0.0, 0.0, 0.0, 0.0, 0.0, 0.0, 0.0, 1.6670455356069756E9, 0.0, 2022-10-29 14:12:15.606
144.0, 6039.353134096134, 1579.356011387892, -9603.208519071806, -13133.214069548529, 0.0, 0.0, 0.0, 0.0, 0.0, 0.0, 0.0, 0.0, 1.6670455356069756E9, 0.0, 2022-10-29 14:12:15.606
145.0, 6141.560859985184, 2012.3130095582455, -9675.63355166372, -12794.640926559921, 0.0, 0.0, 0.0, 0.0, 0.0, 0.0, 0.0, 0.0, 1.6670455356176891E9, 0.0, 2022-10-29 14:12:15.617
145.0, 5740.520168036688, 1650.0588200502098, -9477.772274557967, -13033.310122032184, 0.0, 0.0, 0.0, 0.0, 0.0, 0.0, 0.0, 0.0, 1.6670455356176891E9, 0.0, 2022-10-29 14:12:15.617
146.0, 5560.93765196437, 1625.1062075458467, -9422.28898876533, -12965.429067886434, 0.0, 0.0, 0.0, 0.0, 0.0, 0.0, 0.0, 0.0, 1.6670455356327574E9, 0.0, 2022-10-29 14:12:15.632
146.0, 5071.214582316577, 1581.781336509157, -9585.215860384982, -13101.006051130127, 0.0, 0.0, 0.0, 0.0, 0.0, 0.0, 0.0, 0.0, 1.6670455356327574E9, 0.0, 2022-10-29 14:12:15.632
147.0, 5151.29332016781, 1984.3890465390868, -9692.79595256038, -12798.620180112775, 0.0, 0.0, 0.0, 0.0, 0.0, 0.0, 0.0, 0.0, 1.667045535664822E9, 0.0, 2022-10-29 14:12:15.664
147.0, 4762.94210876897, 1634.0202590902336, -9483.595298788976, -13024.12492774101, 0.0, 0.0, 0.0, 0.0, 0.0, 0.0, 0.0, 0.0, 1.667045535664822E9, 0.0, 2022-10-29 14:12:15.664
148.0, 4564.312282222323, 1599.9759497935884, -9423.856006846763, -12933.894231460057, 0.0, 0.0, 0.0, 0.0, 0.0, 0.0, 0.0, 0.0, 1.6670455356656053E9, 0.0, 2022-10-29 14:12:15.665
148.0, 5030.644147597253, 1520.837796781212, -9577.635083174799, -13093.698286616709, 0.0, 0.0, 0.0, 0.0, 0.0, 0.0, 0.0, 0.0, 1.6670455356656053E9, 0.0, 2022-10-29 14:12:15.665
149.0, 5111.642900837585, 1924.735772295855, -9690.84372478351, -12791.720064694528, 0.0, 0.0, 0.0, 0.0, 0.0, 0.0, 0.0, 0.0, 1.6670455356661904E9, 0.0, 2022-10-29 14:12:15.666
149.0, 4722.091181552969, 1573.7648609541357, -9493.565872070845, -13043.849160107318, 0.0, 0.0, 0.0, 0.0, 0.0, 0.0, 0.0, 0.0, 1.6670455356661904E9, 0.0, 2022-10-29 14:12:15.666
150.0, 4529.871543530375, 1528.9384200852364, -9458.049912141636, -12982.45683238469, 0.0, 0.0, 0.0, 0.0, 0.0, 0.0, 0.0, 0.0, 1.667045535667029E9, 0.0, 2022-10-29 14:12:15.667
150.0, 4102.301871246193, 1509.7658229623921, -9550.000962402206, -13106.309229267295, 0.0, 0.0, 0.0, 0.0, 0.0, 0.0, 0.0, 0.0, 1.667045535667029E9, 0.0, 2022-10-29 14:12:15.667
151.0, 4203.90373334242, 1970.8954874989577, -9684.17922306247, -12821.044620247092, 0.0, 0.0, 0.0, 0.0, 0.0, 0.0, 0.0, 0.0, 1.6670455356776917E9, 0.0, 2022-10-29 14:12:15.677
151.0, 3835.8152999035083, 1622.8641375224106, -9487.327718944754, -13073.738440553192, 0.0, 0.0, 0.0, 0.0, 0.0, 0.0, 0.0, 0.0, 1.6670455356776917E9, 0.0, 2022-10-29 14:12:15.677
152.0, 3605.5047808322124, 1529.415257329587, -9438.946503167972, -13017.548313668929, 0.0, 0.0, 0.0, 0.0, 0.0, 0.0, 0.0, 0.0, 1.667045535692818E9, 0.0, 2022-10-29 14:12:15.692
152.0, 3127.558656144887, 1521.2753650760278, -9544.095660372172, -13134.111645537894, 0.0, 0.0, 0.0, 0.0, 0.0, 0.0, 0.0, 0.0, 1.667045535692818E9, 0.0, 2022-10-29 14:12:15.692
153.0, 3210.345081564039, 1039.439744434785, -9711.41691443976, -12740.674170199316, 0.0, 0.0, 0.0, 0.0, 0.0, 0.0, 0.0, 0.0, 1.6670455357083657E9, 0.0, 2022-10-29 14:12:15.708
153.0, 2883.8368558324873, 695.4287869106047, -9472.439177221153, -13033.687851927709, 0.0, 0.0, 0.0, 0.0, 0.0, 0.0, 0.0, 0.0, 1.6670455357083657E9, 0.0, 2022-10-29 14:12:15.708
154.0, 2829.8140009725466, 686.4193679173477, -9386.08675719425, -12996.795608814806, 0.0, 0.0, 0.0, 0.0, 0.0, 0.0, 0.0, 0.0, 1.6670455357090611E9, 0.0, 2022-10-29 14:12:15.709
154.0, 2495.850284679327, 785.0517494487576, -9413.580631718505, -13008.529544925783, 0.0, 0.0, 0.0, 0.0, 0.0, 0.0, 0.0, 0.0, 1.6670455357090611E9, 0.0, 2022-10-29 14:12:15.709
155.0, 2330.94874588307, 1123.224723142106, -9707.18334768992, -12692.650114868302, 0.0, 0.0, 0.0, 0.0, 0.0, 0.0, 0.0, 0.0, 1.6670455357227468E9, 0.0, 2022-10-29 14:12:15.722
155.0, 1952.691524464637, 748.3820303832181, -9461.728103748057, -12988.061072468292, 0.0, 0.0, 0.0, 0.0, 0.0, 0.0, 0.0, 0.0, 1.6670455357227468E9, 0.0, 2022-10-29 14:12:15.722
156.0, 1897.4045834196731, 750.6839388059452, -9341.245356725529, -12948.853831282817, 0.0, 0.0, 0.0, 0.0, 0.0, 0.0, 0.0, 0.0, 1.6670455357383807E9, 0.0, 2022-10-29 14:12:15.738
156.0, 1448.6147187869065, 787.6416301680729, -9373.335568295326, -12941.433869770728, 0.0, 0.0, 0.0, 0.0, 0.0, 0.0, 0.0, 0.0, 1.6670455357383807E9, 0.0, 2022-10-29 14:12:15.738
157.0, 1130.2239459091797, 1007.2822146657854, -9790.029611508362, -12755.141973177902, 0.0, 0.0, 0.0, 0.0, 0.0, 0.0, 0.0, 0.0, 1.667045535739056E9, 0.0, 2022-10-29 14:12:15.739
157.0, 947.3839769754559, 731.5543505325913, -9489.784833215643, -13005.644212109968, 0.0, 0.0, 0.0, 0.0, 0.0, 0.0, 0.0, 0.0, 1.667045535739056E9, 0.0, 2022-10-29 14:12:15.739
158.0, 1104.1512333680876, 862.078728936147, -9256.360847431235, -12900.192123009358, 0.0, 0.0, 0.0, 0.0, 0.0, 0.0, 0.0, 0.0, 1.667045535752684E9, 0.0, 2022-10-29 14:12:15.752
158.0, 622.869117920287, 891.2349889907055, -9297.03412939934, -12896.908490848262, 0.0, 0.0, 0.0, 0.0, 0.0, 0.0, 0.0, 0.0, 1.667045535752684E9, 0.0, 2022-10-29 14:12:15.752
159.0, 1040.586023771204, 939.4011605200358, -8859.888443278614, -12791.002003903035, 0.0, 0.0, 0.0, 0.0, 0.0, 0.0, 0.0, 0.0, 1.6670455357683403E9, 0.0, 2022-10-29 14:12:15.768
159.0, 932.0990058565512, 703.8809608104639, -8520.31487705186, -13039.462257459294, 0.0, 0.0, 0.0, 0.0, 0.0, 0.0, 0.0, 0.0, 1.6670455357683403E9, 0.0, 2022-10-29 14:12:15.768
160.0, 1237.1233762926422, 944.403276710771, -8173.396147312131, -12860.150884133764, 0.0, 0.0, 0.0, 0.0, 0.0, 0.0, 0.0, 0.0, 1.6670455357691247E9, 0.0, 2022-10-29 14:12:15.769
160.0, 1647.921467225533, 914.7776592117734, -8246.359725497663, -12921.973300351296, 0.0, 0.0, 0.0, 0.0, 0.0, 0.0, 0.0, 0.0, 1.6670455357691247E9, 0.0, 2022-10-29 14:12:15.769
161.0, 1792.4873000127263, 793.3113185008988, -8012.099872073159, -12887.52134195948, 0.0, 0.0, 0.0, 0.0, 0.0, 0.0, 0.0, 0.0, 1.6670455357827635E9, 0.0, 2022-10-29 14:12:15.782
161.0, 1806.4950952967629, 638.6814149329439, -7568.239195581991, -13073.229814159218, 0.0, 0.0, 0.0, 0.0, 0.0, 0.0, 0.0, 0.0, 1.6670455357827635E9, 0.0, 2022-10-29 14:12:15.782
162.0, 2223.185398609843, 946.4994906359352, -7113.742243616842, -12876.019279645756, 0.0, 0.0, 0.0, 0.0, 0.0, 0.0, 0.0, 0.0, 1.6670455357984347E9, 0.0, 2022-10-29 14:12:15.798
162.0, 2578.442235300783, 921.98257647641, -7221.415833291132, -12830.729091182351, 0.0, 0.0, 0.0, 0.0, 0.0, 0.0, 0.0, 0.0, 1.6670455357984347E9, 0.0, 2022-10-29 14:12:15.798
163.0, 2534.8144323676825, 657.4388831607066, -7240.375256116502, -12958.07455462357, 0.0, 0.0, 0.0, 0.0, 0.0, 0.0, 0.0, 0.0, 1.6670455357991035E9, 0.0, 2022-10-29 14:12:15.799
163.0, 2690.4559788736515, 576.0399606251158, -7629.556725305505, -13136.800633606035, 0.0, 0.0, 0.0, 0.0, 0.0, 0.0, 0.0, 0.0, 1.6670455357991035E9, 0.0, 2022-10-29 14:12:15.799
164.0, 2234.838926871773, 973.5969357648864, -8042.490299113095, -12824.173046560027, 0.0, 0.0, 0.0, 0.0, 0.0, 0.0, 0.0, 0.0, 1.6670455358127365E9, 0.0, 2022-10-29 14:12:15.812
164.0, 2553.0146555020474, 921.7600524290465, -8203.614538954105, -12861.01293107355, 0.0, 0.0, 0.0, 0.0, 0.0, 0.0, 0.0, 0.0, 1.6670455358127365E9, 0.0, 2022-10-29 14:12:15.812
165.0, 2389.078010894358, 545.681322734803, -8343.634523345158, -13023.81264609471, 0.0, 0.0, 0.0, 0.0, 0.0, 0.0, 0.0, 0.0, 1.6670455358283317E9, 0.0, 2022-10-29 14:12:15.828
165.0, 2603.881034799386, 513.7238776134327, -8657.236354329623, -13152.99627036415, 0.0, 0.0, 0.0, 0.0, 0.0, 0.0, 0.0, 0.0, 1.6670455358283317E9, 0.0, 2022-10-29 14:12:15.828
166.0, 2253.5758256497793, 25.34156209975481, -9004.42622681614, -12788.597248231526, 0.0, 0.0, 0.0, 0.0, 0.0, 0.0, 0.0, 0.0, 1.6670455358291097E9, 0.0, 2022-10-29 14:12:15.829
166.0, 2560.303720515687, -32.09021156979725, -9175.498600539286, -12818.757671424188, 0.0, 0.0, 0.0, 0.0, 0.0, 0.0, 0.0, 0.0, 1.6670455358291097E9, 0.0, 2022-10-29 14:12:15.829
167.0, 2336.251924020238, -467.58099196013063, -9374.354691033252, -13022.412053561304, 0.0, 0.0, 0.0, 0.0, 0.0, 0.0, 0.0, 0.0, 1.667045535842688E9, 0.0, 2022-10-29 14:12:15.842
167.0, 2580.5590186757036, -471.1151974182576, -9651.054929154925, -13142.159910242539, 0.0, 0.0, 0.0, 0.0, 0.0, 0.0, 0.0, 0.0, 1.667045535842688E9, 0.0, 2022-10-29 14:12:15.842
168.0, 2185.1206968608312, -44.716113820206374, -10013.357737362385, -12809.785651430488, 0.0, 0.0, 0.0, 0.0, 0.0, 0.0, 0.0, 0.0, 1.6670455358583648E9, 0.0, 2022-10-29 14:12:15.858
168.0, 2536.2038052012213, -84.7835319954902, -10141.327764096204, -12793.1318769278, 0.0, 0.0, 0.0, 0.0, 0.0, 0.0, 0.0, 0.0, 1.6670455358583648E9, 0.0, 2022-10-29 14:12:15.858
169.0, 2355.598426491022, -443.50164609542117, -10351.68030705396, -13014.034677660558, 0.0, 0.0, 0.0, 0.0, 0.0, 0.0, 0.0, 0.0, 1.6670455358590877E9, 0.0, 2022-10-29 14:12:15.859
169.0, 2599.344536153134, -456.4903186415322, -10632.299960329197, -13149.564912154805, 0.0, 0.0, 0.0, 0.0, 0.0, 0.0, 0.0, 0.0, 1.6670455358590877E9, 0.0, 2022-10-29 14:12:15.859
170.0, 2162.8533325246535, -53.99667556025088, -11023.86000589002, -12854.043627506122, 0.0, 0.0, 0.0, 0.0, 0.0, 0.0, 0.0, 0.0, 1.6670455358727477E9, 0.0, 2022-10-29 14:12:15.872
170.0, 2504.440834877547, -96.47632920695469, -11127.692718309816, -12846.294554797933, 0.0, 0.0, 0.0, 0.0, 0.0, 0.0, 0.0, 0.0, 1.6670455358727477E9, 0.0, 2022-10-29 14:12:15.872
171.0, 2338.772616590373, -466.298206275329, -11331.74726974219, -13083.297624839935, 0.0, 0.0, 0.0, 0.0, 0.0, 0.0, 0.0, 0.0, 1.6670455358884184E9, 0.0, 2022-10-29 14:12:15.888
171.0, 2561.616425400134, -483.4194682724774, -11629.521844114177, -13162.03747850703, 0.0, 0.0, 0.0, 0.0, 0.0, 0.0, 0.0, 0.0, 1.6670455358884184E9, 0.0, 2022-10-29 14:12:15.888
172.0, 3029.135709010996, -134.03988436190411, -12105.252078077756, -12896.046443908475, 0.0, 0.0, 0.0, 0.0, 0.0, 0.0, 0.0, 0.0, 1.6670455358890543E9, 0.0, 2022-10-29 14:12:15.889
172.0, 3346.9598870454356, -199.3142282385379, -12181.07667972939, -12913.29299255414, 0.0, 0.0, 0.0, 0.0, 0.0, 0.0, 0.0, 0.0, 1.6670455358890543E9, 0.0, 2022-10-29 14:12:15.889
173.0, 3296.88075668877, -467.70627860864624, -12265.981758473441, -13062.142880740575, 0.0, 0.0, 0.0, 0.0, 0.0, 0.0, 0.0, 0.0, 1.6670455359027157E9, 0.0, 2022-10-29 14:12:15.902
173.0, 3459.055908417329, -527.3165440023877, -12645.200134180486, -13179.646797448397, 0.0, 0.0, 0.0, 0.0, 0.0, 0.0, 0.0, 0.0, 1.6670455359027157E9, 0.0, 2022-10-29 14:12:15.902
174.0, 3781.620409645606, -287.63196569215506, -12283.927668410819, -12988.94742875779, 0.0, 0.0, 0.0, 0.0, 0.0, 0.0, 0.0, 0.0, 1.667045535934776E9, 0.0, 2022-10-29 14:12:15.934
174.0, 4226.9976155688055, -275.14443974010646, -12236.85354766855, -12946.002157566603, 0.0, 0.0, 0.0, 0.0, 0.0, 0.0, 0.0, 0.0, 1.667045535934776E9, 0.0, 2022-10-29 14:12:15.934
175.0, 4343.862009384204, -418.9940816857852, -12148.120681319851, -13043.6565552596, 0.0, 0.0, 0.0, 0.0, 0.0, 0.0, 0.0, 0.0, 1.6670455359355004E9, 0.0, 2022-10-29 14:12:15.935
175.0, 4327.930035572965, -580.5166208720766, -11691.85475667566, -13213.833222943358, 0.0, 0.0, 0.0, 0.0, 0.0, 0.0, 0.0, 0.0, 1.6670455359355004E9, 0.0, 2022-10-29 14:12:15.935
176.0, 4366.725887763314, -532.9133042860776, -11491.551324898843, -13104.809529385064, 0.0, 0.0, 0.0, 0.0, 0.0, 0.0, 0.0, 0.0, 1.6670455359361968E9, 0.0, 2022-10-29 14:12:15.936
176.0, 3903.948797296267, -479.47013391926885, -11337.482406324241, -13087.886482085567, 0.0, 0.0, 0.0, 0.0, 0.0, 0.0, 0.0, 0.0, 1.6670455359361968E9, 0.0, 2022-10-29 14:12:15.936
177.0, 3453.835008079186, -370.3660325119272, -11023.065277149435, -13046.904658371117, 0.0, 0.0, 0.0, 0.0, 0.0, 0.0, 0.0, 0.0, 1.6670455359369287E9, 0.0, 2022-10-29 14:12:15.936
177.0, 3244.064019564539, -696.6723036458716, -10688.514396563172, -13294.76278803451, 0.0, 0.0, 0.0, 0.0, 0.0, 0.0, 0.0, 0.0, 1.6670455359369287E9, 0.0, 2022-10-29 14:12:15.936
178.0, 2983.2284370549023, -924.8473398424685, -10639.269263896625, -13321.02810542332, 0.0, 0.0, 0.0, 0.0, 0.0, 0.0, 0.0, 0.0, 1.667045535947754E9, 0.0, 2022-10-29 14:12:15.947
178.0, 2728.561819522176, -835.5235693007708, -10339.95011084294, -13208.344919758383, 0.0, 0.0, 0.0, 0.0, 0.0, 0.0, 0.0, 0.0, 1.667045535947754E9, 0.0, 2022-10-29 14:12:15.947
179.0, 2820.039772438351, -1299.6657232516445, -10824.37374225352, -12957.752923227381, 0.0, 0.0, 0.0, 0.0, 0.0, 0.0, 0.0, 0.0, 1.667045535962686E9, 0.0, 2022-10-29 14:12:15.962
179.0, 2359.9011813900433, -837.8946658726782, -10624.76593186846, -13322.527805305552, 0.0, 0.0, 0.0, 0.0, 0.0, 0.0, 0.0, 0.0, 1.667045535962686E9, 0.0, 2022-10-29 14:12:15.962
180.0, 2804.6556939706206, -397.07078814553097, -10719.131087550428, -13576.717585593928, 0.0, 0.0, 0.0, 0.0, 0.0, 0.0, 0.0, 0.0, 1.667045535978344E9, 0.0, 2022-10-29 14:12:15.978
180.0, 2837.1703841853887, 77.15226613590494, -10321.8153359578, -13389.139163416345, 0.0, 0.0, 0.0, 0.0, 0.0, 0.0, 0.0, 0.0, 1.667045535978344E9, 0.0, 2022-10-29 14:12:15.978
181.0, 3318.458109483123, 257.17983030295, -10660.244492798112, -13754.443241338246, 0.0, 0.0, 0.0, 0.0, 0.0, 0.0, 0.0, 0.0, 1.667045535979064E9, 0.0, 2022-10-29 14:12:15.979
181.0, 3560.9139536605217, 404.1148897120729, -10584.1057395502, -13277.084280943964, 0.0, 0.0, 0.0, 0.0, 0.0, 0.0, 0.0, 0.0, 1.667045535979064E9, 0.0, 2022-10-29 14:12:15.979
182.0, 3755.629974903539, 504.035666778218, -10791.827262889128, -13718.175561517943, 0.0, 0.0, 0.0, 0.0, 0.0, 0.0, 0.0, 0.0, 1.6670455359926968E9, 0.0, 2022-10-29 14:12:15.992
182.0, 3996.51319114957, 310.6734893191606, -11239.517596934922, -13336.960079234559, 0.0, 0.0, 0.0, 0.0, 0.0, 0.0, 0.0, 0.0, 1.6670455359926968E9, 0.0, 2022-10-29 14:12:15.992
183.0, 3653.510136663448, 781.7849468374625, -11552.68372957455, -13438.690967879258, 0.0, 0.0, 0.0, 0.0, 0.0, 0.0, 0.0, 0.0, 1.6670455360083747E9, 0.0, 2022-10-29 14:12:16.008
183.0, 3739.7241803919896, 665.2047854186967, -11540.175634172745, -13104.278463591356, 0.0, 0.0, 0.0, 0.0, 0.0, 0.0, 0.0, 0.0, 1.6670455360083747E9, 0.0, 2022-10-29 14:12:16.008
184.0, 3846.346858178731, 613.7736812280491, -11782.786684198305, -12649.052231134847, 0.0, 0.0, 0.0, 0.0, 0.0, 0.0, 0.0, 0.0, 1.6670455360091436E9, 0.0, 2022-10-29 14:12:16.009
184.0, 4153.071013144683, 524.4966594357975, -12198.47469432326, -12171.751239189878, 0.0, 0.0, 0.0, 0.0, 0.0, 0.0, 0.0, 0.0, 1.6670455360091436E9, 0.0, 2022-10-29 14:12:16.009
185.0, 3836.1126219499856, 57.44860321935266, -12510.818048972636, -12259.782874296885, 0.0, 0.0, 0.0, 0.0, 0.0, 0.0, 0.0, 0.0, 1.66704553603994E9, 0.0, 2022-10-29 14:12:16.039
185.0, 3837.3449189853854, -189.37731405626982, -12536.320426770486, -12009.46202051267, 0.0, 0.0, 0.0, 0.0, 0.0, 0.0, 0.0, 0.0, 1.66704553603994E9, 0.0, 2022-10-29 14:12:16.039
186.0, 3911.523964656517, -260.84680220950395, -12762.674131688662, -11592.782936899457, 0.0, 0.0, 0.0, 0.0, 0.0, 0.0, 0.0, 0.0, 1.6670455360405457E9, 0.0, 2022-10-29 14:12:16.040
186.0, 4218.165841823444, -372.69038033438846, -13128.385858705733, -11102.64660830656, 0.0, 0.0, 0.0, 0.0, 0.0, 0.0, 0.0, 0.0, 1.6670455360405457E9, 0.0, 2022-10-29 14:12:16.040
187.0, 3856.3062117607333, 76.84559433953837, -13502.142110527493, -11271.119751560502, 0.0, 0.0, 0.0, 0.0, 0.0, 0.0, 0.0, 0.0, 1.6670455360414548E9, 0.0, 2022-10-29 14:12:16.041
187.0, 3845.8457115846686, -186.12173114484176, -13522.550744585693, -11017.470386815723, 0.0, 0.0, 0.0, 0.0, 0.0, 0.0, 0.0, 0.0, 1.6670455360414548E9, 0.0, 2022-10-29 14:12:16.041
188.0, 3880.8455653199926, -314.310542026069, -13787.653552944772, -10651.39588950295, 0.0, 0.0, 0.0, 0.0, 0.0, 0.0, 0.0, 0.0, 1.6670455360527155E9, 0.0, 2022-10-29 14:12:16.052
188.0, 4242.6210476337, -370.1827774140984, -14073.006049613934, -11076.990894610528, 0.0, 0.0, 0.0, 0.0, 0.0, 0.0, 0.0, 0.0, 1.6670455360527155E9, 0.0, 2022-10-29 14:12:16.052
189.0, 3854.993506876286, 64.87978443130851, -14477.732412968762, -11285.305192092434, 0.0, 0.0, 0.0, 0.0, 0.0, 0.0, 0.0, 0.0, 1.6670455360684447E9, 0.0, 2022-10-29 14:12:16.068
189.0, 3836.2079893988557, -199.01503624208272, -14507.329981218092, -11037.041283283848, 0.0, 0.0, 0.0, 0.0, 0.0, 0.0, 0.0, 0.0, 1.6670455360684447E9, 0.0, 2022-10-29 14:12:16.068
190.0, 3878.983095142059, -318.7815924230963, -14767.638237833977, -10673.5136578409, 0.0, 0.0, 0.0, 0.0, 0.0, 0.0, 0.0, 0.0, 1.6670455360690517E9, 0.0, 2022-10-29 14:12:16.069
190.0, 4241.794529743493, -367.46574009628966, -15073.612542858813, -11098.22978645889, 0.0, 0.0, 0.0, 0.0, 0.0, 0.0, 0.0, 0.0, 1.6670455360690517E9, 0.0, 2022-10-29 14:12:16.069
191.0, 3872.806650365237, 90.95623687235638, -15467.792388338596, -11260.756488783285, 0.0, 0.0, 0.0, 0.0, 0.0, 0.0, 0.0, 0.0, 1.6670455360827436E9, 0.0, 2022-10-29 14:12:16.082
191.0, 3836.6941763930954, -199.93692158116028, -15490.594558368437, -11036.798189786728, 0.0, 0.0, 0.0, 0.0, 0.0, 0.0, 0.0, 0.0, 1.6670455360827436E9, 0.0, 2022-10-29 14:12:16.082
192.0, 3855.5675815194845, -344.68974936613813, -15763.689532932825, -10668.453573200852, 0.0, 0.0, 0.0, 0.0, 0.0, 0.0, 0.0, 0.0, 1.6670455360984747E9, 0.0, 2022-10-29 14:12:16.098
192.0, 4284.769720134325, -339.7680410244502, -15998.9984282949, -11082.780259741936, 0.0, 0.0, 0.0, 0.0, 0.0, 0.0, 0.0, 0.0, 1.6670455360984747E9, 0.0, 2022-10-29 14:12:16.098
193.0, 3885.653206713032, 105.45208910061046, -16430.655811230652, -11229.131894757971, 0.0, 0.0, 0.0, 0.0, 0.0, 0.0, 0.0, 0.0, 1.6670455360990818E9, 0.0, 2022-10-29 14:12:16.099
193.0, 3836.712875892874, -197.87623670557514, -16485.250870783813, -11025.350356022362, 0.0, 0.0, 0.0, 0.0, 0.0, 0.0, 0.0, 0.0, 1.6670455360990818E9, 0.0, 2022-10-29 14:12:16.099
194.0, 3850.787989376113, -339.86527842329815, -16747.38793847803, -10669.90465438366, 0.0, 0.0, 0.0, 0.0, 0.0, 0.0, 0.0, 0.0, 1.667045536112775E9, 0.0, 2022-10-29 14:12:16.112
194.0, 4288.322625092231, -327.34783327160403, -16970.411262485664, -11048.777089344803, 0.0, 0.0, 0.0, 0.0, 0.0, 0.0, 0.0, 0.0, 1.667045536112775E9, 0.0, 2022-10-29 14:12:16.112
195.0, 3885.8140224111266, 113.17498250911012, -17419.290884717368, -11219.209940175526, 0.0, 0.0, 0.0, 0.0, 0.0, 0.0, 0.0, 0.0, 1.6670455361284568E9, 0.0, 2022-10-29 14:12:16.128
195.0, 3833.6798170288093, -194.56268534483388, -17466.810053554364, -11034.838482209947, 0.0, 0.0, 0.0, 0.0, 0.0, 0.0, 0.0, 0.0, 1.6670455361284568E9, 0.0, 2022-10-29 14:12:16.128
196.0, 3843.6971390601248, -356.1114038308151, -17751.259364384227, -10687.519583174959, 0.0, 0.0, 0.0, 0.0, 0.0, 0.0, 0.0, 0.0, 1.6670455361292002E9, 0.0, 2022-10-29 14:12:16.129
196.0, 4300.529658547603, -325.7957747899927, -17930.25658611348, -11057.969763435889, 0.0, 0.0, 0.0, 0.0, 0.0, 0.0, 0.0, 0.0, 1.6670455361292002E9, 0.0, 2022-10-29 14:12:16.129
197.0, 3870.1101824971847, 71.39656010409817, -18413.558247537352, -11258.048801215366, 0.0, 0.0, 0.0, 0.0, 0.0, 0.0, 0.0, 0.0, 1.6670455361426644E9, 0.0, 2022-10-29 14:12:16.142
197.0, 3799.770144130569, -233.5324428831227, -18453.90054835938, -11045.684192081448, 0.0, 0.0, 0.0, 0.0, 0.0, 0.0, 0.0, 0.0, 1.6670455361426644E9, 0.0, 2022-10-29 14:12:16.142
198.0, 3788.6102826627903, -405.1676715495996, -18734.336946536787, -10729.477520777844, 0.0, 0.0, 0.0, 0.0, 0.0, 0.0, 0.0, 0.0, 1.6670455361584394E9, 0.0, 2022-10-29 14:12:16.158
198.0, 4268.061717082281, -378.61812176415697, -18897.23763885675, -11114.143060770351, 0.0, 0.0, 0.0, 0.0, 0.0, 0.0, 0.0, 0.0, 1.6670455361584394E9, 0.0, 2022-10-29 14:12:16.158
199.0, 3857.6282663950697, 76.28834924614057, -18410.717793521006, -11279.231594564393, 0.0, 0.0, 0.0, 0.0, 0.0, 0.0, 0.0, 0.0, 1.6670455361591706E9, 0.0, 2022-10-29 14:12:16.159
199.0, 3772.0144766094163, -260.82623275974765, -18465.627004670445, -11086.957727992442, 0.0, 0.0, 0.0, 0.0, 0.0, 0.0, 0.0, 0.0, 1.6670455361591706E9, 0.0, 2022-10-29 14:12:16.159
200.0, 3708.323980364017, -505.4007302620448, -18783.088412409183, -10836.98094500415, 0.0, 0.0, 0.0, 0.0, 0.0, 0.0, 0.0, 0.0, 1.6670455361733563E9, 0.0, 2022-10-29 14:12:16.173
200.0, 3276.374885231722, -375.7982371975668, -18866.7219251683, -11134.00566943502, 0.0, 0.0, 0.0, 0.0, 0.0, 0.0, 0.0, 0.0, 1.6670455361733563E9, 0.0, 2022-10-29 14:12:16.173
0.0, 5839.618167112581, 5031.736198384315, 8075.605243270751, 4423.020731846336, 0.0, 0.0, 0.0, 0.0, 0.0, 0.0, 0.0, 0.0, 1.6670455361741009E9, 0.0, 2022-10-29 14:12:16.174
101.0, 5739.901214594021, 4655.928611436859, 7995.425528120715, 4624.771504906006, 0.0, 0.0, 0.0, 0.0, 0.0, 0.0, 0.0, 0.0, 1.6670455361877167E9, 0.0, 2022-10-29 14:12:16.187
101.0, 5670.215658719651, 4380.825310596265, 7675.851076907013, 4831.283170609269, 0.0, 0.0, 0.0, 0.0, 0.0, 0.0, 0.0, 0.0, 1.6670455361877167E9, 0.0, 2022-10-29 14:12:16.187
102.0, 5271.428256494459, 4549.87626839336, 7610.872185126878, 4616.263232506812, 0.0, 0.0, 0.0, 0.0, 0.0, 0.0, 0.0, 0.0, 1.6670455362040803E9, 0.0, 2022-10-29 14:12:16.204
102.0, 4916.2742670523, 4114.70337949926, 8074.040095139295, 4595.250604605768, 0.0, 0.0, 0.0, 0.0, 0.0, 0.0, 0.0, 0.0, 1.6670455362040803E9, 0.0, 2022-10-29 14:12:16.204
103.0, 4786.320223391987, 3697.5736379413866, 7983.815008708276, 4655.457384042442, 0.0, 0.0, 0.0, 0.0, 0.0, 0.0, 0.0, 0.0, 1.667045536204888E9, 0.0, 2022-10-29 14:12:16.204
103.0, 4698.354036534205, 3403.4305064263754, 7656.547583285719, 4863.360292529222, 0.0, 0.0, 0.0, 0.0, 0.0, 0.0, 0.0, 0.0, 1.667045536204888E9, 0.0, 2022-10-29 14:12:16.204
104.0, 4343.05793089373, 3631.2278127274476, 7647.29694074532, 4687.575644861907, 0.0, 0.0, 0.0, 0.0, 0.0, 0.0, 0.0, 0.0, 1.6670455362177472E9, 0.0, 2022-10-29 14:12:16.217
104.0, 3960.9018637714908, 3160.5034348545596, 8070.642396029551, 4513.485171874519, 0.0, 0.0, 0.0, 0.0, 0.0, 0.0, 0.0, 0.0, 1.6670455362177472E9, 0.0, 2022-10-29 14:12:16.217
105.0, 3811.575138340704, 2732.0043974313885, 7985.589591237251, 4674.721608714201, 0.0, 0.0, 0.0, 0.0, 0.0, 0.0, 0.0, 0.0, 1.667045536233379E9, 0.0, 2022-10-29 14:12:16.233
105.0, 3736.8930761255324, 2451.612878053449, 7668.3824966955, 4908.500884994399, 0.0, 0.0, 0.0, 0.0, 0.0, 0.0, 0.0, 0.0, 1.667045536233379E9, 0.0, 2022-10-29 14:12:16.233
106.0, 3396.9268204034306, 2689.9941012291238, 7679.8565097595565, 4654.081100858748, 0.0, 0.0, 0.0, 0.0, 0.0, 0.0, 0.0, 0.0, 1.6670455362342255E9, 0.0, 2022-10-29 14:12:16.234
106.0, 2980.6591257853433, 3155.6565245119855, 8087.55422362918, 4502.807757501025, 0.0, 0.0, 0.0, 0.0, 0.0, 0.0, 0.0, 0.0, 1.6670455362342255E9, 0.0, 2022-10-29 14:12:16.234
107.0, 2841.991115228273, 2735.3179487921298, 7974.220295371953, 4677.029126986861, 0.0, 0.0, 0.0, 0.0, 0.0, 0.0, 0.0, 0.0, 1.6670455362641647E9, 0.0, 2022-10-29 14:12:16.264
107.0, 2794.060557396151, 2508.3621199810877, 7668.431115394924, 4880.4516353267245, 0.0, 0.0, 0.0, 0.0, 0.0, 0.0, 0.0, 0.0, 1.6670455362641647E9, 0.0, 2022-10-29 14:12:16.264
108.0, 2479.809853769373, 2746.470330459997, 7706.215324647259, 4760.12222420238, 0.0, 0.0, 0.0, 0.0, 0.0, 0.0, 0.0, 0.0, 1.6670455362648408E9, 0.0, 2022-10-29 14:12:16.264
108.0, 2019.1645062770694, 3169.1912224516273, 8068.559271754231, 4563.079985186923, 0.0, 0.0, 0.0, 0.0, 0.0, 0.0, 0.0, 0.0, 1.6670455362648408E9, 0.0, 2022-10-29 14:12:16.264
109.0, 1910.6662686625496, 2787.9794800681993, 7986.419849027414, 4697.953867238946, 0.0, 0.0, 0.0, 0.0, 0.0, 0.0, 0.0, 0.0, 1.6670455362655E9, 0.0, 2022-10-29 14:12:16.265
109.0, 1900.2020285865292, 2616.6920620976016, 7682.971846422646, 5026.778960993048, 0.0, 0.0, 0.0, 0.0, 0.0, 0.0, 0.0, 0.0, 1.6670455362655E9, 0.0, 2022-10-29 14:12:16.265
110.0, 1600.0096088931896, 2881.00575156603, 7756.30754465377, 4865.729519151151, 0.0, 0.0, 0.0, 0.0, 0.0, 0.0, 0.0, 0.0, 1.6670455362777212E9, 0.0, 2022-10-29 14:12:16.277
110.0, 2007.1799968690611, 3139.5338158030063, 8050.517994367983, 4527.128326912876, 0.0, 0.0, 0.0, 0.0, 0.0, 0.0, 0.0, 0.0, 1.6670455362777212E9, 0.0, 2022-10-29 14:12:16.277
111.0, 1941.1520631513558, 2853.0686988970265, 7978.64833691949, 4765.055152243935, 0.0, 0.0, 0.0, 0.0, 0.0, 0.0, 0.0, 0.0, 1.6670455362934163E9, 0.0, 2022-10-29 14:12:16.293
111.0, 2020.810062257573, 2822.1696454631165, 7727.876825190615, 5228.733558600303, 0.0, 0.0, 0.0, 0.0, 0.0, 0.0, 0.0, 0.0, 1.6670455362934163E9, 0.0, 2022-10-29 14:12:16.293
112.0, 1677.5676541742869, 2971.9862977880985, 7790.550068648066, 4965.371673670597, 0.0, 0.0, 0.0, 0.0, 0.0, 0.0, 0.0, 0.0, 1.6670455362941031E9, 0.0, 2022-10-29 14:12:16.294
112.0, 1905.7090312712826, 2964.901057322044, 8015.220818586182, 5343.27360459324, 0.0, 0.0, 0.0, 0.0, 0.0, 0.0, 0.0, 0.0, 1.6670455362941031E9, 0.0, 2022-10-29 14:12:16.294
113.0, 1905.0732482788153, 2803.240141837392, 7971.890337699559, 5677.420575984288, 0.0, 0.0, 0.0, 0.0, 0.0, 0.0, 0.0, 0.0, 1.6670455363241014E9, 0.0, 2022-10-29 14:12:16.324
113.0, 2058.968261505477, 2899.6117538455874, 7734.642304210458, 5231.280430470128, 0.0, 0.0, 0.0, 0.0, 0.0, 0.0, 0.0, 0.0, 1.6670455363241014E9, 0.0, 2022-10-29 14:12:16.324
114.0, 1674.7141105080955, 2953.0511843124405, 7832.006859656889, 4930.979553678073, 0.0, 0.0, 0.0, 0.0, 0.0, 0.0, 0.0, 0.0, 1.6670455363248773E9, 0.0, 2022-10-29 14:12:16.324
114.0, 1758.974056509789, 2761.8057902283035, 7962.521888310555, 5220.432850648649, 0.0, 0.0, 0.0, 0.0, 0.0, 0.0, 0.0, 0.0, 1.6670455363248773E9, 0.0, 2022-10-29 14:12:16.324
115.0, 1844.9001279417425, 2723.060426687356, 7957.188790973742, 5616.669641104061, 0.0, 0.0, 0.0, 0.0, 0.0, 0.0, 0.0, 0.0, 1.6670455363255167E9, 0.0, 2022-10-29 14:12:16.325
115.0, 2072.284175297711, 2925.7087757363915, 7757.167721643578, 5280.617190685589, 0.0, 0.0, 0.0, 0.0, 0.0, 0.0, 0.0, 0.0, 1.6670455363255167E9, 0.0, 2022-10-29 14:12:16.325
116.0, 1653.0283006150275, 2939.8792566685006, 7834.089983932208, 4925.631496741436, 0.0, 0.0, 0.0, 0.0, 0.0, 0.0, 0.0, 0.0, 1.6670455363377466E9, 0.0, 2022-10-29 14:12:16.337
116.0, 1685.0231447359547, 2663.809191689361, 7941.911299654748, 5139.037668013014, 0.0, 0.0, 0.0, 0.0, 0.0, 0.0, 0.0, 0.0, 1.6670455363377466E9, 0.0, 2022-10-29 14:12:16.337
117.0, 1818.4384658052586, 2696.441688752733, 7953.046851772815, 5577.075320273172, 0.0, 0.0, 0.0, 0.0, 0.0, 0.0, 0.0, 0.0, 1.6670455363533363E9, 0.0, 2022-10-29 14:12:16.353
117.0, 2088.4611125560477, 2974.561218907591, 7753.7401033341885, 5254.583747094031, 0.0, 0.0, 0.0, 0.0, 0.0, 0.0, 0.0, 0.0, 1.6670455363533363E9, 0.0, 2022-10-29 14:12:16.353
118.0, 1688.648977742996, 2961.6828734101728, 7887.497625249438, 4945.961592900567, 0.0, 0.0, 0.0, 0.0, 0.0, 0.0, 0.0, 0.0, 1.667045536354087E9, 0.0, 2022-10-29 14:12:16.354
118.0, 1604.166507693939, 2554.260042187292, 7914.327667531557, 5054.699184112251, 0.0, 0.0, 0.0, 0.0, 0.0, 0.0, 0.0, 0.0, 1.667045536354087E9, 0.0, 2022-10-29 14:12:16.354
119.0, 1784.45773480786, 2653.0289300670847, 7931.888367773499, 4586.026141365059, 0.0, 0.0, 0.0, 0.0, 0.0, 0.0, 0.0, 0.0, 1.6670455363676949E9, 0.0, 2022-10-29 14:12:16.367
119.0, 2093.5174572961405, 2990.0668441238813, 7749.07083823951, 4308.016938258894, 0.0, 0.0, 0.0, 0.0, 0.0, 0.0, 0.0, 0.0, 1.6670455363676949E9, 0.0, 2022-10-29 14:12:16.367
120.0, 1667.327808095608, 2937.149129700847, 7896.542573292274, 3949.4596398570575, 0.0, 0.0, 0.0, 0.0, 0.0, 0.0, 0.0, 0.0, 1.6670455363832867E9, 0.0, 2022-10-29 14:12:16.383
120.0, 1528.9458998851478, 2453.6941323787905, 7892.378194691613, 4027.3916751337238, 0.0, 0.0, 0.0, 0.0, 0.0, 0.0, 0.0, 0.0, 1.6670455363832867E9, 0.0, 2022-10-29 14:12:16.383
121.0, 1743.3412746950053, 2604.5934857409447, 7930.762657886837, 3568.7640036675148, 0.0, 0.0, 0.0, 0.0, 0.0, 0.0, 0.0, 0.0, 1.6670455363840916E9, 0.0, 2022-10-29 14:12:16.384
121.0, 2056.933755929582, 2953.0530542624183, 7733.060326529201, 3290.8445581602864, 0.0, 0.0, 0.0, 0.0, 0.0, 0.0, 0.0, 0.0, 1.6670455363840916E9, 0.0, 2022-10-29 14:12:16.384
122.0, 1643.168054381851, 2904.297848490067, 7911.457294315565, 2938.4356552856043, 0.0, 0.0, 0.0, 0.0, 0.0, 0.0, 0.0, 0.0, 1.6670455363976488E9, 0.0, 2022-10-29 14:12:16.397
122.0, 1496.8089395659044, 3386.909498372115, 7886.1288218656555, 3036.252738626674, 0.0, 0.0, 0.0, 0.0, 0.0, 0.0, 0.0, 0.0, 1.6670455363976488E9, 0.0, 2022-10-29 14:12:16.397
123.0, 1716.3204975151457, 3548.295531210024, 7918.8735159276985, 2569.7750171534717, 0.0, 0.0, 0.0, 0.0, 0.0, 0.0, 0.0, 0.0, 1.6670455364133053E9, 0.0, 2022-10-29 14:12:16.413
123.0, 2038.5858067469671, 3906.5012790160254, 7702.082735196222, 2290.6849829601124, 0.0, 0.0, 0.0, 0.0, 0.0, 0.0, 0.0, 0.0, 1.6670455364133053E9, 0.0, 2022-10-29 14:12:16.413
124.0, 1663.9207592359744, 3888.244957382325, 7951.964150735643, 1990.9675305611454, 0.0, 0.0, 0.0, 0.0, 0.0, 0.0, 0.0, 0.0, 1.667045536414051E9, 0.0, 2022-10-29 14:12:16.414
124.0, 1486.8720253836364, 4360.781316783745, 7872.066798032261, 2041.7740714591928, 0.0, 0.0, 0.0, 0.0, 0.0, 0.0, 0.0, 0.0, 1.667045536414051E9, 0.0, 2022-10-29 14:12:16.414
125.0, 1717.3265306032263, 4539.763578913175, 7909.875316634309, 1588.7861691261642, 0.0, 0.0, 0.0, 0.0, 0.0, 0.0, 0.0, 0.0, 1.667045536427727E9, 0.0, 2022-10-29 14:12:16.427
125.0, 2046.6228517517447, 4906.844109314028, 7718.998302695807, 1315.9155885591172, 0.0, 0.0, 0.0, 0.0, 0.0, 0.0, 0.0, 0.0, 1.667045536427727E9, 0.0, 2022-10-29 14:12:16.427
126.0, 1684.5163882919587, 4892.589480632916, 7960.476163034793, 1019.1563970251009, 0.0, 0.0, 0.0, 0.0, 0.0, 0.0, 0.0, 0.0, 1.6670455364433672E9, 0.0, 2022-10-29 14:12:16.443
126.0, 1492.122844921425, 5336.044377978891, 7870.6306764492765, 1035.3464239332825, 0.0, 0.0, 0.0, 0.0, 0.0, 0.0, 0.0, 0.0, 1.6670455364433672E9, 0.0, 2022-10-29 14:12:16.443
127.0, 1705.0559188486077, 5505.422577022109, 7900.533046544995, 597.722030618228, 0.0, 0.0, 0.0, 0.0, 0.0, 0.0, 0.0, 0.0, 1.6670455364441423E9, 0.0, 2022-10-29 14:12:16.444
127.0, 2030.9676305372268, 5867.532780381851, 7700.983204609249, 302.5167675158009, 0.0, 0.0, 0.0, 0.0, 0.0, 0.0, 0.0, 0.0, 1.6670455364441423E9, 0.0, 2022-10-29 14:12:16.444
128.0, 1675.4733101991005, 5859.961352921557, 7967.780187648255, 48.36999607691541, 0.0, 0.0, 0.0, 0.0, 0.0, 0.0, 0.0, 0.0, 1.6670455364576845E9, 0.0, 2022-10-29 14:12:16.457
128.0, 1467.4395052138716, 6285.917258374859, 7875.802958087996, 62.52177750924602, 0.0, 0.0, 0.0, 0.0, 0.0, 0.0, 0.0, 0.0, 1.6670455364576845E9, 0.0, 2022-10-29 14:12:16.457
129.0, 1686.8500858643092, 6457.101829096675, 7895.903050399851, -383.47999170655385, 0.0, 0.0, 0.0, 0.0, 0.0, 0.0, 0.0, 0.0, 1.6670455364734848E9, 0.0, 2022-10-29 14:12:16.473
129.0, 1995.8013512538746, 6806.294418009464, 7683.151361620519, -662.016520706471, 0.0, 0.0, 0.0, 0.0, 0.0, 0.0, 0.0, 0.0, 1.6670455364734848E9, 0.0, 2022-10-29 14:12:16.473
130.0, 1682.848392911721, 6840.742636501323, 8010.538463841658, -925.6140193333849, 0.0, 0.0, 0.0, 0.0, 0.0, 0.0, 0.0, 0.0, 1.6670455364741836E9, 0.0, 2022-10-29 14:12:16.474
130.0, 1471.329001167789, 7279.230946706142, 7867.223627589643, -935.1750735701062, 0.0, 0.0, 0.0, 0.0, 0.0, 0.0, 0.0, 0.0, 1.6670455364741836E9, 0.0, 2022-10-29 14:12:16.474
131.0, 1684.3368730940856, 7447.517094962299, 7880.419864583295, -1380.406423395034, 0.0, 0.0, 0.0, 0.0, 0.0, 0.0, 0.0, 0.0, 1.667045536487651E9, 0.0, 2022-10-29 14:12:16.487
131.0, 1993.0899237859994, 7790.299495351035, 7661.041073082481, -1674.8861459060572, 0.0, 0.0, 0.0, 0.0, 0.0, 0.0, 0.0, 0.0, 1.667045536487651E9, 0.0, 2022-10-29 14:12:16.487
132.0, 1704.521113154944, 7849.457232850138, 8019.704958633054, -1906.2494468148798, 0.0, 0.0, 0.0, 0.0, 0.0, 0.0, 0.0, 0.0, 1.667045536503497E9, 0.0, 2022-10-29 14:12:16.503
132.0, 1490.0172812463716, 8291.876177908387, 7875.294331694022, -1886.345699250698, 0.0, 0.0, 0.0, 0.0, 0.0, 0.0, 0.0, 0.0, 1.667045536503497E9, 0.0, 2022-10-29 14:12:16.503
133.0, 1693.896057380829, 8439.742472406477, 7884.653431333136, -2363.8785649929196, 0.0, 0.0, 0.0, 0.0, 0.0, 0.0, 0.0, 0.0, 1.667045536504089E9, 0.0, 2022-10-29 14:12:16.504
133.0, 1977.7002354683354, 8757.35534609342, 7649.271607921924, -2661.780295963399, 0.0, 0.0, 0.0, 0.0, 0.0, 0.0, 0.0, 0.0, 1.667045536504089E9, 0.0, 2022-10-29 14:12:16.504
134.0, 1739.8743874360807, 8854.140217046719, 8063.861957409885, -2834.741319164168, 0.0, 0.0, 0.0, 0.0, 0.0, 0.0, 0.0, 0.0, 1.667045536517678E9, 0.0, 2022-10-29 14:12:16.517
134.0, 1488.3268464663997, 9267.586157148238, 7861.0303532630205, -2893.381080519408, 0.0, 0.0, 0.0, 0.0, 0.0, 0.0, 0.0, 0.0, 1.667045536517678E9, 0.0, 2022-10-29 14:12:16.517
135.0, 1684.6472847904079, 9411.847188089043, 7870.430591801647, -3348.3099909294397, 0.0, 0.0, 0.0, 0.0, 0.0, 0.0, 0.0, 0.0, 1.6670455365333493E9, 0.0, 2022-10-29 14:12:16.533
135.0, 1979.5327864466235, 9743.376229511108, 7635.179664888885, -3632.0262813679874, 0.0, 0.0, 0.0, 0.0, 0.0, 0.0, 0.0, 0.0, 1.6670455365333493E9, 0.0, 2022-10-29 14:12:16.533
136.0, 1751.6513323965482, 9854.821508290712, 8066.1395564829, -3796.643587767612, 0.0, 0.0, 0.0, 0.0, 0.0, 0.0, 0.0, 0.0, 1.6670455365341127E9, 0.0, 2022-10-29 14:12:16.534
136.0, 1513.9975197622553, 10271.21822945727, 7878.18527435977, -3831.635961703025, 0.0, 0.0, 0.0, 0.0, 0.0, 0.0, 0.0, 0.0, 1.6670455365341127E9, 0.0, 2022-10-29 14:12:16.534
137.0, 1697.1609900421463, 10410.987640551291, 7867.975347480737, -4300.933567742817, 0.0, 0.0, 0.0, 0.0, 0.0, 0.0, 0.0, 0.0, 1.6670455365476916E9, 0.0, 2022-10-29 14:12:16.547
137.0, 1987.6708087502047, 10747.449610014912, 7627.481080830097, -4616.2557527069, 0.0, 0.0, 0.0, 0.0, 0.0, 0.0, 0.0, 0.0, 1.6670455365476916E9, 0.0, 2022-10-29 14:12:16.547
138.0, 1761.5134485797025, 10832.681930005085, 8075.150845426135, -4798.128957502078, 0.0, 0.0, 0.0, 0.0, 0.0, 0.0, 0.0, 0.0, 1.6670455365633976E9, 0.0, 2022-10-29 14:12:16.563
138.0, 1463.2283778637648, 11201.611840934027, 7869.200164716225, -4851.323424521834, 0.0, 0.0, 0.0, 0.0, 0.0, 0.0, 0.0, 0.0, 1.6670455365633976E9, 0.0, 2022-10-29 14:12:16.563
139.0, 1644.1666076700203, 11322.348901153542, 7853.230791905429, -5321.081038256176, 0.0, 0.0, 0.0, 0.0, 0.0, 0.0, 0.0, 0.0, 1.6670455365642123E9, 0.0, 2022-10-29 14:12:16.564
139.0, 1878.1253991480917, 11594.798742975574, 7565.408091315534, -5651.445100842044, 0.0, 0.0, 0.0, 0.0, 0.0, 0.0, 0.0, 0.0, 1.6670455365642123E9, 0.0, 2022-10-29 14:12:16.564
140.0, 1720.3483697674237, 11743.044637319166, 7135.658057357185, -5808.13007943565, 0.0, 0.0, 0.0, 0.0, 0.0, 0.0, 0.0, 0.0, 1.6670455365941594E9, 0.0, 2022-10-29 14:12:16.594
140.0, 1454.323676069267, 12165.683251511771, 6895.079642957542, -5806.746316452045, 0.0, 0.0, 0.0, 0.0, 0.0, 0.0, 0.0, 0.0, 1.6670455365941594E9, 0.0, 2022-10-29 14:12:16.594
141.0, 1626.3347646812908, 12281.577141288668, 6861.16249025939, -5341.336336416192, 0.0, 0.0, 0.0, 0.0, 0.0, 0.0, 0.0, 0.0, 1.6670455365948215E9, 0.0, 2022-10-29 14:12:16.594
141.0, 1851.2280386667699, 12523.307444874663, 6573.063037072774, -5700.0226613665, 0.0, 0.0, 0.0, 0.0, 0.0, 0.0, 0.0, 0.0, 1.6670455365948215E9, 0.0, 2022-10-29 14:12:16.594
142.0, 1726.2835909971036, 12731.705890105572, 6144.962298994884, -5811.477289895993, 0.0, 0.0, 0.0, 0.0, 0.0, 0.0, 0.0, 0.0, 1.6670455365955265E9, 0.0, 2022-10-29 14:12:16.595
142.0, 1516.8922023279592, 12250.023605362512, 5941.079782960471, -5815.492072498426, 0.0, 0.0, 0.0, 0.0, 0.0, 0.0, 0.0, 0.0, 1.6670455365955265E9, 0.0, 2022-10-29 14:12:16.595
143.0, 1627.684868565295, 12281.163882343564, 5876.798382522073, -5337.904978206847, 0.0, 0.0, 0.0, 0.0, 0.0, 0.0, 0.0, 0.0, 1.6670455366077538E9, 0.0, 2022-10-29 14:12:16.607
143.0, 1788.3079618122429, 12435.552562364377, 5567.875166382175, -5733.3881788211875, 0.0, 0.0, 0.0, 0.0, 0.0, 0.0, 0.0, 0.0, 1.6670455366077538E9, 0.0, 2022-10-29 14:12:16.607
144.0, 1704.2406206582673, 12685.778048699722, 5193.015644073486, -5871.246501037851, 0.0, 0.0, 0.0, 0.0, 0.0, 0.0, 0.0, 0.0, 1.6670455366234012E9, 0.0, 2022-10-29 14:12:16.623
144.0, 1522.9284008564427, 12255.874678843189, 4969.895082667004, -5832.609594595619, 0.0, 0.0, 0.0, 0.0, 0.0, 0.0, 0.0, 0.0, 1.6670455366234012E9, 0.0, 2022-10-29 14:12:16.623
145.0, 1587.5968809402548, 12234.104721201118, 4876.883770768996, -5353.6125580207445, 0.0, 0.0, 0.0, 0.0, 0.0, 0.0, 0.0, 0.0, 1.667045536624056E9, 0.0, 2022-10-29 14:12:16.624
145.0, 1641.8646992472932, 12232.290869722608, 4525.553829031531, -4900.708803436719, 0.0, 0.0, 0.0, 0.0, 0.0, 0.0, 0.0, 0.0, 1.667045536624056E9, 0.0, 2022-10-29 14:12:16.624
146.0, 1609.4191971817054, 12559.105767250527, 4208.322425140068, -4987.734405455645, 0.0, 0.0, 0.0, 0.0, 0.0, 0.0, 0.0, 0.0, 1.6670455366378353E9, 0.0, 2022-10-29 14:12:16.637
146.0, 1565.667977550067, 12357.302635591477, 4022.0884969965555, -4734.90594875114, 0.0, 0.0, 0.0, 0.0, 0.0, 0.0, 0.0, 0.0, 1.6670455366378353E9, 0.0, 2022-10-29 14:12:16.637
147.0, 1561.6962037971243, 12212.946237201802, 3891.5061501436867, -4421.003055820242, 0.0, 0.0, 0.0, 0.0, 0.0, 0.0, 0.0, 0.0, 1.667045536653462E9, 0.0, 2022-10-29 14:12:16.653
147.0, 1533.044830236584, 12066.862005032599, 3487.170606334228, -4096.54242531443, 0.0, 0.0, 0.0, 0.0, 0.0, 0.0, 0.0, 0.0, 1.667045536653462E9, 0.0, 2022-10-29 14:12:16.653
148.0, 1656.7719404706731, 11658.096549725626, 3257.4715609056875, -3962.4595321030356, 0.0, 0.0, 0.0, 0.0, 0.0, 0.0, 0.0, 0.0, 1.6670455366541016E9, 0.0, 2022-10-29 14:12:16.654
148.0, 1721.5058688037097, 11631.264637493528, 3092.454085210804, -3560.222072168719, 0.0, 0.0, 0.0, 0.0, 0.0, 0.0, 0.0, 0.0, 1.6670455366541016E9, 0.0, 2022-10-29 14:12:16.654
149.0, 1616.1753264516592, 11333.299328223802, 2915.029491412919, -3364.4140001386404, 0.0, 0.0, 0.0, 0.0, 0.0, 0.0, 0.0, 0.0, 1.6670455366677096E9, 0.0, 2022-10-29 14:12:16.667
149.0, 1506.2559268539771, 11079.72289152816, 2462.479157374706, -3134.580318311695, 0.0, 0.0, 0.0, 0.0, 0.0, 0.0, 0.0, 0.0, 1.6670455366677096E9, 0.0, 2022-10-29 14:12:16.667
150.0, 1710.9593509286642, 10764.08468501782, 2290.520427362062, -2902.886036256794, 0.0, 0.0, 0.0, 0.0, 0.0, 0.0, 0.0, 0.0, 1.6670455366833944E9, 0.0, 2022-10-29 14:12:16.683
150.0, 1789.4822903983295, 10772.851010513958, 2094.6749563324265, -2495.8315851795487, 0.0, 0.0, 0.0, 0.0, 0.0, 0.0, 0.0, 0.0, 1.6670455366833944E9, 0.0, 2022-10-29 14:12:16.683
151.0, 1634.6018135333434, 10384.095889919903, 1930.0408203830011, -2375.4198962561786, 0.0, 0.0, 0.0, 0.0, 0.0, 0.0, 0.0, 0.0, 1.6670455366841424E9, 0.0, 2022-10-29 14:12:16.684
151.0, 1463.5687087597325, 10039.752081299666, 1459.0266002635472, -2200.6749407765456, 0.0, 0.0, 0.0, 0.0, 0.0, 0.0, 0.0, 0.0, 1.6670455366841424E9, 0.0, 2022-10-29 14:12:16.684
152.0, 1708.7490700548515, 9778.61169694364, 1331.3333261264488, -1912.205237494316, 0.0, 0.0, 0.0, 0.0, 0.0, 0.0, 0.0, 0.0, 1.6670455366976943E9, 0.0, 2022-10-29 14:12:16.697
152.0, 1837.0500779347494, 9852.25406697113, 1146.7112948638387, -1459.0939184627496, 0.0, 0.0, 0.0, 0.0, 0.0, 0.0, 0.0, 0.0, 1.6670455366976943E9, 0.0, 2022-10-29 14:12:16.697
153.0, 1651.9212902281433, 9410.766357001849, 938.6718800286762, -1371.3203364526853, 0.0, 0.0, 0.0, 0.0, 0.0, 0.0, 0.0, 0.0, 1.6670455367133763E9, 0.0, 2022-10-29 14:12:16.713
153.0, 1429.7899323599413, 9011.569435731508, 1420.746854267083, -1272.9553577681072, 0.0, 0.0, 0.0, 0.0, 0.0, 0.0, 0.0, 0.0, 1.6670455367133763E9, 0.0, 2022-10-29 14:12:16.713
154.0, 1735.0368268433958, 8822.852214017417, 1352.0467620310374, -935.5902024651878, 0.0, 0.0, 0.0, 0.0, 0.0, 0.0, 0.0, 0.0, 1.6670455367141345E9, 0.0, 2022-10-29 14:12:16.714
154.0, 1890.784960498102, 8949.481486617122, 1150.7410370660946, -1389.6458462355658, 0.0, 0.0, 0.0, 0.0, 0.0, 0.0, 0.0, 0.0, 1.6670455367141345E9, 0.0, 2022-10-29 14:12:16.714
155.0, 1660.3098858287558, 9433.882678627968, 917.5545349288732, -1344.5445227199234, 0.0, 0.0, 0.0, 0.0, 0.0, 0.0, 0.0, 0.0, 1.6670455367276561E9, 0.0, 2022-10-29 14:12:16.727
155.0, 1421.5546726575121, 8996.205926713534, 1365.3234068737365, -1289.6895401198417, 0.0, 0.0, 0.0, 0.0, 0.0, 0.0, 0.0, 0.0, 1.6670455367276561E9, 0.0, 2022-10-29 14:12:16.727
156.0, 1786.4080926347524, 8872.97809312353, 1339.1010983344167, -887.5642771841958, 0.0, 0.0, 0.0, 0.0, 0.0, 0.0, 0.0, 0.0, 1.6670455367433589E9, 0.0, 2022-10-29 14:12:16.743
156.0, 1934.7624440770596, 8999.330613126513, 1130.4539497564547, -1360.1960040344857, 0.0, 0.0, 0.0, 0.0, 0.0, 0.0, 0.0, 0.0, 1.6670455367433589E9, 0.0, 2022-10-29 14:12:16.743
157.0, 1695.6781197097152, 9457.414129149169, 925.6084094834514, -1342.8522179899737, 0.0, 0.0, 0.0, 0.0, 0.0, 0.0, 0.0, 0.0, 1.6670455367441733E9, 0.0, 2022-10-29 14:12:16.744
157.0, 1450.2434452176094, 9014.64737339504, 1378.0558962728828, -1291.1050922530703, 0.0, 0.0, 0.0, 0.0, 0.0, 0.0, 0.0, 0.0, 1.6670455367441733E9, 0.0, 2022-10-29 14:12:16.744
158.0, 1838.467500017956, 8908.088273907546, 1392.525569201447, -870.0447158417664, 0.0, 0.0, 0.0, 0.0, 0.0, 0.0, 0.0, 0.0, 1.6670455367577446E9, 0.0, 2022-10-29 14:12:16.757
158.0, 1962.1534713525325, 9007.61075162841, 1171.806023566518, -391.172965915408, 0.0, 0.0, 0.0, 0.0, 0.0, 0.0, 0.0, 0.0, 1.6670455367577446E9, 0.0, 2022-10-29 14:12:16.757
159.0, 1721.4048915049061, 9473.865949054249, 942.2547041862272, -352.4556516241282, 0.0, 0.0, 0.0, 0.0, 0.0, 0.0, 0.0, 0.0, 1.6670455367733605E9, 0.0, 2022-10-29 14:12:16.773
159.0, 1486.453156588599, 9051.773360255174, 1392.551748501137, -273.4072562106885, 0.0, 0.0, 0.0, 0.0, 0.0, 0.0, 0.0, 0.0, 1.6670455367733605E9, 0.0, 2022-10-29 14:12:16.773
160.0, 1876.0011359732598, 8940.917115718592, 1434.5732644032687, 119.19248153781518, 0.0, 0.0, 0.0, 0.0, 0.0, 0.0, 0.0, 0.0, 1.667045536774129E9, 0.0, 2022-10-29 14:12:16.774
160.0, 1950.3129480928183, 8989.861186438706, 1158.0357119296677, 594.4552280069329, 0.0, 0.0, 0.0, 0.0, 0.0, 0.0, 0.0, 0.0, 1.667045536774129E9, 0.0, 2022-10-29 14:12:16.774
161.0, 1724.4716094685718, 9475.361909036525, 935.2947503686883, 627.5776519645005, 0.0, 0.0, 0.0, 0.0, 0.0, 0.0, 0.0, 0.0, 1.667045536787776E9, 0.0, 2022-10-29 14:12:16.787
161.0, 1497.609278156422, 9075.65636137221, 1403.92478426639, 715.2726960754953, 0.0, 0.0, 0.0, 0.0, 0.0, 0.0, 0.0, 0.0, 1.667045536787776E9, 0.0, 2022-10-29 14:12:16.787
162.0, 1886.4466765495017, 8952.93715417618, 1447.5694167492911, 1126.6205523018725, 0.0, 0.0, 0.0, 0.0, 0.0, 0.0, 0.0, 0.0, 1.6670455368034332E9, 0.0, 2022-10-29 14:12:16.803
162.0, 1937.4514321452007, 8969.60588827869, 1148.745800439734, 1565.10138270678, 0.0, 0.0, 0.0, 0.0, 0.0, 0.0, 0.0, 0.0, 1.6670455368034332E9, 0.0, 2022-10-29 14:12:16.803
163.0, 1709.3773732474074, 8480.969259568024, 939.7938500153832, 1590.9384815506637, 0.0, 0.0, 0.0, 0.0, 0.0, 0.0, 0.0, 0.0, 1.6670455368041103E9, 0.0, 2022-10-29 14:12:16.804
163.0, 1497.8935105530545, 8086.024604547303, 1423.256327137351, 1708.8107784041204, 0.0, 0.0, 0.0, 0.0, 0.0, 0.0, 0.0, 0.0, 1.6670455368041103E9, 0.0, 2022-10-29 14:12:16.804
164.0, 1900.1758492868394, 7989.967144135386, 1477.7728487914428, 2139.93148569623, 0.0, 0.0, 0.0, 0.0, 0.0, 0.0, 0.0, 0.0, 1.667045536817819E9, 0.0, 2022-10-29 14:12:16.817
164.0, 1899.5606357441284, 7952.685951427091, 1118.8677396937273, 2521.8351095714606, 0.0, 0.0, 0.0, 0.0, 0.0, 0.0, 0.0, 0.0, 1.667045536817819E9, 0.0, 2022-10-29 14:12:16.817
165.0, 1703.0588122722693, 7485.583666661289, 922.1190828247927, 2574.3115157997236, 0.0, 0.0, 0.0, 0.0, 0.0, 0.0, 0.0, 0.0, 1.667045536833448E9, 0.0, 2022-10-29 14:12:16.833
165.0, 1519.7214366444387, 7125.334063529503, 1406.8680855315179, 2694.5212501254864, 0.0, 0.0, 0.0, 0.0, 0.0, 0.0, 0.0, 0.0, 1.667045536833448E9, 0.0, 2022-10-29 14:12:16.833
166.0, 1947.5697314753197, 7039.594987095334, 1494.7856536898762, 3116.202449929435, 0.0, 0.0, 0.0, 0.0, 0.0, 0.0, 0.0, 0.0, 1.6670455368340583E9, 0.0, 2022-10-29 14:12:16.834
166.0, 1904.8881232310086, 6964.81007763138, 1102.516897087451, 3462.663041924592, 0.0, 0.0, 0.0, 0.0, 0.0, 0.0, 0.0, 0.0, 1.6670455368340583E9, 0.0, 2022-10-29 14:12:16.834
167.0, 1734.1803897535428, 6541.442182947416, 919.7816453524865, 3572.2514603761956, 0.0, 0.0, 0.0, 0.0, 0.0, 0.0, 0.0, 0.0, 1.6670455368477004E9, 0.0, 2022-10-29 14:12:16.847
167.0, 1584.9696012213826, 6224.567939501721, 434.675482199993, 3739.3857194459997, 0.0, 0.0, 0.0, 0.0, 0.0, 0.0, 0.0, 0.0, 1.6670455368477004E9, 0.0, 2022-10-29 14:12:16.847
168.0, 2054.012894064188, 6171.104199685156, 560.4894566093571, 4187.560370536055, 0.0, 0.0, 0.0, 0.0, 0.0, 0.0, 0.0, 0.0, 1.6670455368797877E9, 0.0, 2022-10-29 14:12:16.879
168.0, 1909.7668227232061, 5992.256573954131, 115.60404753033072, 4482.960108436178, 0.0, 0.0, 0.0, 0.0, 0.0, 0.0, 0.0, 0.0, 1.6670455368797877E9, 0.0, 2022-10-29 14:12:16.879
169.0, 1756.9208514341153, 5609.036505294498, -60.68361668102443, 4594.732628461905, 0.0, 0.0, 0.0, 0.0, 0.0, 0.0, 0.0, 0.0, 1.6670455368805432E9, 0.0, 2022-10-29 14:12:16.880
169.0, 1665.723391014617, 5389.253804598469, -498.36036859545857, 4860.301054365467, 0.0, 0.0, 0.0, 0.0, 0.0, 0.0, 0.0, 0.0, 1.6670455368805432E9, 0.0, 2022-10-29 14:12:16.880
170.0, 2062.3061222159304, 5226.719622474164, -365.88937226496637, 5224.780484347139, 0.0, 0.0, 0.0, 0.0, 0.0, 0.0, 0.0, 0.0, 1.667045536881306E9, 0.0, 2022-10-29 14:12:16.881
170.0, 1792.9790968568996, 4846.822454925161, 97.41317414585501, 5314.769957080949, 0.0, 0.0, 0.0, 0.0, 0.0, 0.0, 0.0, 0.0, 1.667045536881306E9, 0.0, 2022-10-29 14:12:16.881
171.0, 1686.504145118408, 4546.6655642814, -67.48649470042437, 5517.089194933884, 0.0, 0.0, 0.0, 0.0, 0.0, 0.0, 0.0, 0.0, 1.6670455368821464E9, 0.0, 2022-10-29 14:12:16.882
171.0, 1630.577681181021, 4397.69786924636, -517.4375982694328, 5803.170972094405, 0.0, 0.0, 0.0, 0.0, 0.0, 0.0, 0.0, 0.0, 1.6670455368821464E9, 0.0, 2022-10-29 14:12:16.882
172.0, 2019.3103623753414, 4179.0203089872375, -362.22801020834595, 6162.4070623381995, 0.0, 0.0, 0.0, 0.0, 0.0, 0.0, 0.0, 0.0, 1.6670455368926673E9, 0.0, 2022-10-29 14:12:16.892
172.0, 1729.413887260016, 3774.335084531922, 72.1800691448152, 6219.421837162692, 0.0, 0.0, 0.0, 0.0, 0.0, 0.0, 0.0, 0.0, 1.6670455368926673E9, 0.0, 2022-10-29 14:12:16.892
173.0, 1649.813856603112, 3527.625104154926, -82.05714492779225, 6469.458458550274, 0.0, 0.0, 0.0, 0.0, 0.0, 0.0, 0.0, 0.0, 1.667045536907656E9, 0.0, 2022-10-29 14:12:16.907
173.0, 1601.1839374792762, 3390.531591479201, -543.8637313563377, 6765.148038696963, 0.0, 0.0, 0.0, 0.0, 0.0, 0.0, 0.0, 0.0, 1.667045536907656E9, 0.0, 2022-10-29 14:12:16.907
174.0, 2044.7772111236118, 3204.170506737195, -318.9237086214125, 7156.640766058583, 0.0, 0.0, 0.0, 0.0, 0.0, 0.0, 0.0, 0.0, 1.6670455369234903E9, 0.0, 2022-10-29 14:12:16.923
174.0, 1705.521536393091, 2760.2013731473126, 56.124678635038435, 7204.623682490084, 0.0, 0.0, 0.0, 0.0, 0.0, 0.0, 0.0, 0.0, 1.6670455369234903E9, 0.0, 2022-10-29 14:12:16.923
175.0, 1649.9428831515834, 2552.502289208118, -97.58894944377244, 7431.588861051016, 0.0, 0.0, 0.0, 0.0, 0.0, 0.0, 0.0, 0.0, 1.6670455369242656E9, 0.0, 2022-10-29 14:12:16.924
175.0, 1647.6839835783467, 2459.3600808116607, -535.1123654600233, 7759.651015214156, 0.0, 0.0, 0.0, 0.0, 0.0, 0.0, 0.0, 0.0, 1.6670455369242656E9, 0.0, 2022-10-29 14:12:16.924
176.0, 2091.785883616656, 2287.79778019432, -298.2196224667132, 8156.072930717375, 0.0, 0.0, 0.0, 0.0, 0.0, 0.0, 0.0, 0.0, 1.667045536937746E9, 0.0, 2022-10-29 14:12:16.937
176.0, 1695.6986891594715, 2753.9538702713326, 39.239030335098505, 8133.96825202927, 0.0, 0.0, 0.0, 0.0, 0.0, 0.0, 0.0, 0.0, 1.667045536937746E9, 0.0, 2022-10-29 14:12:16.937
177.0, 1651.7660843799822, 2563.607922126539, -98.00407833885401, 8427.204457805026, 0.0, 0.0, 0.0, 0.0, 0.0, 0.0, 0.0, 0.0, 1.667045536953434E9, 0.0, 2022-10-29 14:12:16.953
177.0, 1691.253818062134, 2516.7843746813014, -523.6271326960996, 8790.548828150146, 0.0, 0.0, 0.0, 0.0, 0.0, 0.0, 0.0, 0.0, 1.667045536953434E9, 0.0, 2022-10-29 14:12:16.953
178.0, 2094.3028362868354, 2284.6880533811636, -279.3929660897702, 9140.091097708791, 0.0, 0.0, 0.0, 0.0, 0.0, 0.0, 0.0, 0.0, 1.6670455369542532E9, 0.0, 2022-10-29 14:12:16.954
178.0, 1635.7480928697623, 2668.910415228922, 26.17929968982935, 9077.789974296931, 0.0, 0.0, 0.0, 0.0, 0.0, 0.0, 0.0, 0.0, 1.6670455369542532E9, 0.0, 2022-10-29 14:12:16.954
179.0, 1622.6995819243602, 2518.6374951093458, -104.84809525776654, 9388.528911865316, 0.0, 0.0, 0.0, 0.0, 0.0, 0.0, 0.0, 0.0, 1.6670455369677427E9, 0.0, 2022-10-29 14:12:16.967
179.0, 1659.9246761333197, 2498.4046363490634, -524.816420882009, 9802.511527610477, 0.0, 0.0, 0.0, 0.0, 0.0, 0.0, 0.0, 0.0, 1.6670455369677427E9, 0.0, 2022-10-29 14:12:16.967
180.0, 2082.9896389208734, 2267.19841123838, -252.95187340304255, 10149.43586720014, 0.0, 0.0, 0.0, 0.0, 0.0, 0.0, 0.0, 0.0, 1.6670455369834535E9, 0.0, 2022-10-29 14:12:16.983
180.0, 2564.584036014974, 2605.782773926854, -0.29171219654381275, 10030.456559959799, 0.0, 0.0, 0.0, 0.0, 0.0, 0.0, 0.0, 0.0, 1.6670455369834535E9, 0.0, 2022-10-29 14:12:16.983
181.0, 2568.83069241466, 2485.466452452354, -126.92846459615976, 10344.164978093002, 0.0, 0.0, 0.0, 0.0, 0.0, 0.0, 0.0, 0.0, 1.6670455369842057E9, 0.0, 2022-10-29 14:12:16.984
181.0, 2618.326398378238, 2475.989545964636, -534.9926886614412, 10753.094988998026, 0.0, 0.0, 0.0, 0.0, 0.0, 0.0, 0.0, 0.0, 1.6670455369842057E9, 0.0, 2022-10-29 14:12:16.984
182.0, 3049.2114919731393, 2251.732054971624, -240.21751405391842, 11116.871317788027, 0.0, 0.0, 0.0, 0.0, 0.0, 0.0, 0.0, 0.0, 1.6670455369977925E9, 0.0, 2022-10-29 14:12:16.997
182.0, 3528.614307693206, 2590.7390263550915, -12.128495556302369, 10998.056566145737, 0.0, 0.0, 0.0, 0.0, 0.0, 0.0, 0.0, 0.0, 1.6670455369977925E9, 0.0, 2022-10-29 14:12:16.997
183.0, 3538.1940614297055, 2472.741442853119, -128.47678317781538, 11314.48015164677, 0.0, 0.0, 0.0, 0.0, 0.0, 0.0, 0.0, 0.0, 1.6670455370134463E9, 0.0, 2022-10-29 14:12:17.013
183.0, 3568.1300906250253, 2451.8840208002366, -556.5345124062151, 11708.996588122565, 0.0, 0.0, 0.0, 0.0, 0.0, 0.0, 0.0, 0.0, 1.6670455370134463E9, 0.0, 2022-10-29 14:12:17.013
184.0, 4050.8501976057887, 2272.501589375548, -209.7261097151786, 12112.827245438006, 0.0, 0.0, 0.0, 0.0, 0.0, 0.0, 0.0, 0.0, 1.6670455370142121E9, 0.0, 2022-10-29 14:12:17.014
184.0, 4508.0006085895, 2594.5406346600503, -19.26422467175871, 11972.018142156303, 0.0, 0.0, 0.0, 0.0, 0.0, 0.0, 0.0, 0.0, 1.6670455370142121E9, 0.0, 2022-10-29 14:12:17.014
185.0, 4514.666980260517, 2468.423728354275, -136.49138878285885, 12289.642235543113, 0.0, 0.0, 0.0, 0.0, 0.0, 0.0, 0.0, 0.0, 1.667045537027792E9, 0.0, 2022-10-29 14:12:17.027
185.0, 4533.379569688812, 2424.345267476514, -571.3968748301268, 12665.152500444092, 0.0, 0.0, 0.0, 0.0, 0.0, 0.0, 0.0, 0.0, 1.667045537027792E9, 0.0, 2022-10-29 14:12:17.027
186.0, 4053.125926728826, 2269.500319661107, -211.25572879705578, 13087.368505941704, 0.0, 0.0, 0.0, 0.0, 0.0, 0.0, 0.0, 0.0, 1.66704553704338E9, 0.0, 2022-10-29 14:12:17.043
186.0, 4530.5615550722, 2610.283743523527, -3.2499730614945292, 12956.4514380428, 0.0, 0.0, 0.0, 0.0, 0.0, 0.0, 0.0, 0.0, 1.66704553704338E9, 0.0, 2022-10-29 14:12:17.043
187.0, 4506.955306551885, 2467.4569642157294, -151.0769986100495, 13266.42369612027, 0.0, 0.0, 0.0, 0.0, 0.0, 0.0, 0.0, 0.0, 1.6670455370441008E9, 0.0, 2022-10-29 14:12:17.044
187.0, 4527.612643957138, 2407.2744941287674, -578.8542353417724, 13636.451267686207, 0.0, 0.0, 0.0, 0.0, 0.0, 0.0, 0.0, 0.0, 1.6670455370441008E9, 0.0, 2022-10-29 14:12:17.044
188.0, 4091.6207169727422, 2291.9976878445596, -153.8520043771714, 14084.738115774933, 0.0, 0.0, 0.0, 0.0, 0.0, 0.0, 0.0, 0.0, 1.6670455370577052E9, 0.0, 2022-10-29 14:12:17.057
188.0, 4526.941331915092, 2624.1569024091586, -27.82111577037722, 13950.533675814979, 0.0, 0.0, 0.0, 0.0, 0.0, 0.0, 0.0, 0.0, 1.6670455370577052E9, 0.0, 2022-10-29 14:12:17.057
189.0, 4504.064363886137, 2465.039118894376, -157.39368963520974, 14248.773867731448, 0.0, 0.0, 0.0, 0.0, 0.0, 0.0, 0.0, 0.0, 1.6670455370734763E9, 0.0, 2022-10-29 14:12:17.073
189.0, 4506.21293641068, 2381.4785341843963, -596.3868863340467, 14588.829881052487, 0.0, 0.0, 0.0, 0.0, 0.0, 0.0, 0.0, 0.0, 1.6670455370734763E9, 0.0, 2022-10-29 14:12:17.073
190.0, 4112.392121326644, 2315.5534477154724, -130.16721795778722, 14110.083417774644, 0.0, 0.0, 0.0, 0.0, 0.0, 0.0, 0.0, 0.0, 1.6670455370741584E9, 0.0, 2022-10-29 14:12:17.074
190.0, 4531.990196855273, 2639.8102536736988, -10.87936897110194, 13957.609566531144, 0.0, 0.0, 0.0, 0.0, 0.0, 0.0, 0.0, 0.0, 1.6670455370741584E9, 0.0, 2022-10-29 14:12:17.074
191.0, 4497.990766358096, 2458.922512516845, -162.47621367499232, 14243.081739998888, 0.0, 0.0, 0.0, 0.0, 0.0, 0.0, 0.0, 0.0, 1.667045537087729E9, 0.0, 2022-10-29 14:12:17.087
191.0, 4492.205141126644, 2381.6225203326903, -622.9027770198882, 14551.397222395986, 0.0, 0.0, 0.0, 0.0, 0.0, 0.0, 0.0, 0.0, 1.667045537087729E9, 0.0, 2022-10-29 14:12:17.087
192.0, 4110.127611903474, 2313.0421048952267, -147.20620215591043, 14103.77794644935, 0.0, 0.0, 0.0, 0.0, 0.0, 0.0, 0.0, 0.0, 1.667045537103547E9, 0.0, 2022-10-29 14:12:17.103
192.0, 4546.805810529739, 2651.3422351870686, 6.7430396201089025, 13965.470836238004, 0.0, 0.0, 0.0, 0.0, 0.0, 0.0, 0.0, 0.0, 1.667045537103547E9, 0.0, 2022-10-29 14:12:17.103
193.0, 4500.861139574088, 2465.095217393711, -164.30876465328038, 14250.423163611908, 0.0, 0.0, 0.0, 0.0, 0.0, 0.0, 0.0, 0.0, 1.6670455371043031E9, 0.0, 2022-10-29 14:12:17.104
193.0, 4468.8363762535155, 2360.075086737983, -649.3251702068374, 14554.078730664216, 0.0, 0.0, 0.0, 0.0, 0.0, 0.0, 0.0, 0.0, 1.6670455371043031E9, 0.0, 2022-10-29 14:12:17.104
194.0, 4122.59082850581, 2329.993201444391, -1097.512910946738, 14122.929974122439, 0.0, 0.0, 0.0, 0.0, 0.0, 0.0, 0.0, 0.0, 1.6670455371177568E9, 0.0, 2022-10-29 14:12:17.117
194.0, 4556.441662765574, 2663.955047787633, -969.2343424665742, 13967.198670017533, 0.0, 0.0, 0.0, 0.0, 0.0, 0.0, 0.0, 0.0, 1.6670455371177568E9, 0.0, 2022-10-29 14:12:17.117
195.0, 4499.12395604467, 2459.318941912148, -1149.3591440324672, 14239.431597642135, 0.0, 0.0, 0.0, 0.0, 0.0, 0.0, 0.0, 0.0, 1.66704553713341E9, 0.0, 2022-10-29 14:12:17.133
195.0, 4453.58693418419, 2332.902843609918, -666.2818766059354, 14561.046164281666, 0.0, 0.0, 0.0, 0.0, 0.0, 0.0, 0.0, 0.0, 1.66704553713341E9, 0.0, 2022-10-29 14:12:17.133
196.0, 4157.583202441223, 2360.293870885391, -1048.5613604267128, 14142.388673591893, 0.0, 0.0, 0.0, 0.0, 0.0, 0.0, 0.0, 0.0, 1.6670455371341841E9, 0.0, 2022-10-29 14:12:17.134
196.0, 4561.167026359588, 2678.185367119033, -978.0305871623568, 13955.047735061496, 0.0, 0.0, 0.0, 0.0, 0.0, 0.0, 0.0, 0.0, 1.6670455371341841E9, 0.0, 2022-10-29 14:12:17.134
197.0, 4495.307388139889, 2463.8965794579126, -1160.021598806139, 14239.753229038324, 0.0, 0.0, 0.0, 0.0, 0.0, 0.0, 0.0, 0.0, 1.6670455371477053E9, 0.0, 2022-10-29 14:12:17.147
197.0, 4442.039993070997, 2324.289854011964, -672.0600220374763, 14529.447749556042, 0.0, 0.0, 0.0, 0.0, 0.0, 0.0, 0.0, 0.0, 1.6670455371477053E9, 0.0, 2022-10-29 14:12:17.147
198.0, 4160.6517903548665, 2343.0716315894388, -1046.7549887481146, 14134.250651288312, 0.0, 0.0, 0.0, 0.0, 0.0, 0.0, 0.0, 0.0, 1.6670455371634629E9, 0.0, 2022-10-29 14:12:17.163
198.0, 4552.451189512853, 2663.4539011935703, -985.3271319759078, 13971.611751965247, 0.0, 0.0, 0.0, 0.0, 0.0, 0.0, 0.0, 0.0, 1.6670455371634629E9, 0.0, 2022-10-29 14:12:17.163
199.0, 4475.8430788205005, 2439.5498307463713, -1166.7833379260264, 14227.579854682554, 0.0, 0.0, 0.0, 0.0, 0.0, 0.0, 0.0, 0.0, 1.6670455371642544E9, 0.0, 2022-10-29 14:12:17.164
199.0, 4389.305533745792, 2275.229846393224, -691.4775826074183, 14495.186526061967, 0.0, 0.0, 0.0, 0.0, 0.0, 0.0, 0.0, 0.0, 1.6670455371642544E9, 0.0, 2022-10-29 14:12:17.164
200.0, 4139.167935059406, 2331.103951731231, -1033.3100484074093, 14101.182455880102, 0.0, 0.0, 0.0, 0.0, 0.0, 0.0, 0.0, 0.0, 1.6670455371784155E9, 0.0, 2022-10-29 14:12:17.178
200.0, 4551.985571968369, 2660.260026631411, -978.9356429516338, 13956.23328334745, 0.0, 0.0, 0.0, 0.0, 0.0, 0.0, 0.0, 0.0, 1.6670455371784155E9, 0.0, 2022-10-29 14:12:17.178
0.0, 530.701153462287, 450.7290027597919, 793.6404296969995, 487.537098123692, 0.0, 0.0, 0.0, 0.0, 0.0, 0.0, 0.0, 0.0, 1.6670455371791213E9, 0.0, 2022-10-29 14:12:17.179
101.0, 401.7942817895673, 226.19288922008127, 1238.174288180191, 696.5956356967799, 0.0, 0.0, 0.0, 0.0, 0.0, 0.0, 0.0, 0.0, 1.6670455372091107E9, 0.0, 2022-10-29 14:12:17.209
101.0, 217.07501312810928, 359.5764211397618, 953.8727033985779, 395.28124601673335, 0.0, 0.0, 0.0, 0.0, 0.0, 0.0, 0.0, 0.0, 1.6670455372091107E9, 0.0, 2022-10-29 14:12:17.209
102.0, 656.9433464165777, 765.6098795291036, 993.6390596274287, 319.9540510592051, 0.0, 0.0, 0.0, 0.0, 0.0, 0.0, 0.0, 0.0, 1.6670455372098083E9, 0.0, 2022-10-29 14:12:17.209
102.0, 546.8855705205351, 482.4171750843525, 777.3980441894382, 500.525770669803, 0.0, 0.0, 0.0, 0.0, 0.0, 0.0, 0.0, 0.0, 1.6670455372098083E9, 0.0, 2022-10-29 14:12:17.209
103.0, 414.87458188459277, 238.3700034758076, 1212.1258849888109, 688.4688330930658, 0.0, 0.0, 0.0, 0.0, 0.0, 0.0, 0.0, 0.0, 1.66704553721054E9, 0.0, 2022-10-29 14:12:17.210
103.0, 286.3024312579073, 457.0681331846863, 968.1441616294906, 440.0141893867403, 0.0, 0.0, 0.0, 0.0, 0.0, 0.0, 0.0, 0.0, 1.66704553721054E9, 0.0, 2022-10-29 14:12:17.210
104.0, 740.1804297803901, 854.8027535723522, 988.2349041914567, 354.20405485341325, 0.0, 0.0, 0.0, 0.0, 0.0, 0.0, 0.0, 0.0, 1.6670455372226963E9, 0.0, 2022-10-29 14:12:17.222
104.0, 613.2295257844962, 567.473719776608, 773.7927806321532, 541.6123115830123, 0.0, 0.0, 0.0, 0.0, 0.0, 0.0, 0.0, 0.0, 1.6670455372226963E9, 0.0, 2022-10-29 14:12:17.222
105.0, 521.5346586708911, 381.60443187877536, 1233.192741439212, 780.8294023987837, 0.0, 0.0, 0.0, 0.0, 0.0, 0.0, 0.0, 0.0, 1.6670455372384908E9, 0.0, 2022-10-29 14:12:17.238
105.0, 395.864670409821, 584.153673578985, 989.1549195805565, 530.6282254131511, 0.0, 0.0, 0.0, 0.0, 0.0, 0.0, 0.0, 0.0, 1.6670455372384908E9, 0.0, 2022-10-29 14:12:17.238
106.0, 755.3588137505576, 872.728094059974, 977.4247233695351, 349.46186170959845, 0.0, 0.0, 0.0, 0.0, 0.0, 0.0, 0.0, 0.0, 1.6670455372392385E9, 0.0, 2022-10-29 14:12:17.239
106.0, 698.946162818931, 664.6737196249887, 781.0650160959922, 594.6216535549611, 0.0, 0.0, 0.0, 0.0, 0.0, 0.0, 0.0, 0.0, 1.6670455372392385E9, 0.0, 2022-10-29 14:12:17.239
107.0, 776.5098179499619, 696.921006992925, 303.55458975350484, 956.2456699204631, 0.0, 0.0, 0.0, 0.0, 0.0, 0.0, 0.0, 0.0, 1.6670455372691069E9, 0.0, 2022-10-29 14:12:17.269
107.0, 633.1239235987887, 824.6049313801341, 93.97994598653167, 655.8737350292504, 0.0, 0.0, 0.0, 0.0, 0.0, 0.0, 0.0, 0.0, 1.6670455372691069E9, 0.0, 2022-10-29 14:12:17.269
108.0, 777.7234154855832, 835.1177901555784, -48.254059178289026, 260.182969967369, 0.0, 0.0, 0.0, 0.0, 0.0, 0.0, 0.0, 0.0, 1.6670455372699437E9, 0.0, 2022-10-29 14:12:17.269
108.0, 830.5102334101684, 776.5995755488984, -172.4710963065736, 592.14957968425, 0.0, 0.0, 0.0, 0.0, 0.0, 0.0, 0.0, 0.0, 1.6670455372699437E9, 0.0, 2022-10-29 14:12:17.269
109.0, 1074.0992672741413, 1013.004261597991, -539.9686255524866, 1077.2463930868544, 0.0, 0.0, 0.0, 0.0, 0.0, 0.0, 0.0, 0.0, 1.6670455372707756E9, 0.0, 2022-10-29 14:12:17.270
109.0, 594.0849779113196, 748.2249545850791, -859.6122649153695, 1561.7279929467477, 0.0, 0.0, 0.0, 0.0, 0.0, 0.0, 0.0, 0.0, 1.6670455372707756E9, 0.0, 2022-10-29 14:12:17.270
110.0, 366.04644806310534, 348.5399763705209, -1119.2305099894293, 1951.8182578249834, 0.0, 0.0, 0.0, 0.0, 0.0, 0.0, 0.0, 0.0, 1.667045537282732E9, 0.0, 2022-10-29 14:12:17.282
110.0, 640.7626692582853, 555.5303492681123, -1175.7029993203469, 2410.545036640018, 0.0, 0.0, 0.0, 0.0, 0.0, 0.0, 0.0, 0.0, 1.667045537282732E9, 0.0, 2022-10-29 14:12:17.282
111.0, 1078.3103946242481, 1012.0655467091128, -1506.8898398964666, 1999.0363647155464, 0.0, 0.0, 0.0, 0.0, 0.0, 0.0, 0.0, 0.0, 1.6670455372984643E9, 0.0, 2022-10-29 14:12:17.298
111.0, 1543.1126409173012, 681.0226922812872, -1826.9560879543424, 2484.019111169502, 0.0, 0.0, 0.0, 0.0, 0.0, 0.0, 0.0, 0.0, 1.6670455372984643E9, 0.0, 2022-10-29 14:12:17.298
112.0, 1190.172672248911, 1146.0904714711942, -2158.687083974015, 2845.558979786001, 0.0, 0.0, 0.0, 0.0, 0.0, 0.0, 0.0, 0.0, 1.6670455372991028E9, 0.0, 2022-10-29 14:12:17.299
112.0, 1565.836273048073, 1486.273641390726, -2170.9576957286336, 2372.5139939906076, 0.0, 0.0, 0.0, 0.0, 0.0, 0.0, 0.0, 0.0, 1.6670455372991028E9, 0.0, 2022-10-29 14:12:17.299
113.0, 1098.8237458812073, 1036.4347348203883, -2457.3218353358097, 2053.926876365207, 0.0, 0.0, 0.0, 0.0, 0.0, 0.0, 0.0, 0.0, 1.6670455373290813E9, 0.0, 2022-10-29 14:12:17.329
113.0, 1493.5776660041884, 651.9674095255323, -2771.277086866088, 2504.4314851276577, 0.0, 0.0, 0.0, 0.0, 0.0, 0.0, 0.0, 0.0, 1.6670455373290813E9, 0.0, 2022-10-29 14:12:17.329
114.0, 1021.0955351521261, 1007.3177437153645, -3201.2552547217347, 2788.660141860135, 0.0, 0.0, 0.0, 0.0, 0.0, 0.0, 0.0, 0.0, 1.667045537329852E9, 0.0, 2022-10-29 14:12:17.329
114.0, 1453.0446302844211, 1392.4582510022447, -3190.7741850959137, 2384.0179262543097, 0.0, 0.0, 0.0, 0.0, 0.0, 0.0, 0.0, 0.0, 1.667045537329852E9, 0.0, 2022-10-29 14:12:17.329
115.0, 1041.8239306565374, 995.901699100621, -3461.576600987464, 2097.4705315493047, 0.0, 0.0, 0.0, 0.0, 0.0, 0.0, 0.0, 0.0, 1.667045537330521E9, 0.0, 2022-10-29 14:12:17.330
115.0, 1431.1549958437681, 604.7436927850358, -3766.3167390269227, 2548.266852508299, 0.0, 0.0, 0.0, 0.0, 0.0, 0.0, 0.0, 0.0, 1.667045537330521E9, 0.0, 2022-10-29 14:12:17.330
116.0, 945.8524879436009, 938.8139962269925, -4208.68519543577, 2811.4697916898876, 0.0, 0.0, 0.0, 0.0, 0.0, 0.0, 0.0, 0.0, 1.6670455373427083E9, 0.0, 2022-10-29 14:12:17.342
116.0, 1400.2858616095036, 1359.3975353939459, -4200.3433485846035, 2408.596548763104, 0.0, 0.0, 0.0, 0.0, 0.0, 0.0, 0.0, 0.0, 1.6670455373427083E9, 0.0, 2022-10-29 14:12:17.342
117.0, 964.2172666760162, 951.5614452259615, -4487.059038787615, 2102.014509995468, 0.0, 0.0, 0.0, 0.0, 0.0, 0.0, 0.0, 0.0, 1.6670455373584712E9, 0.0, 2022-10-29 14:12:17.358
117.0, 1375.9952113972977, 560.2164439125918, -4758.173736325465, 2564.58777591493, 0.0, 0.0, 0.0, 0.0, 0.0, 0.0, 0.0, 0.0, 1.6670455373584712E9, 0.0, 2022-10-29 14:12:17.358
118.0, 940.2837769095786, 910.8320647585206, -5176.670411317144, 2795.893108374439, 0.0, 0.0, 0.0, 0.0, 0.0, 0.0, 0.0, 0.0, 1.6670455373590608E9, 0.0, 2022-10-29 14:12:17.359
118.0, 1383.94997860305, 1333.7268620980904, -5185.5115348123945, 2414.419572994113, 0.0, 0.0, 0.0, 0.0, 0.0, 0.0, 0.0, 0.0, 1.6670455373590608E9, 0.0, 2022-10-29 14:12:17.359
119.0, 1874.0470382464118, 896.1174283828586, -5511.234381553251, 2099.7144715227187, 0.0, 0.0, 0.0, 0.0, 0.0, 0.0, 0.0, 0.0, 1.6670455373727736E9, 0.0, 2022-10-29 14:12:17.372
119.0, 2318.623905579094, 506.67977604689077, -5735.671387744136, 2554.624682432972, 0.0, 0.0, 0.0, 0.0, 0.0, 0.0, 0.0, 0.0, 1.6670455373727736E9, 0.0, 2022-10-29 14:12:17.372
120.0, 1906.8702702075243, 874.7569897859357, -6146.766800723504, 2824.948391130194, 0.0, 0.0, 0.0, 0.0, 0.0, 0.0, 0.0, 0.0, 1.667045537388423E9, 0.0, 2022-10-29 14:12:17.388
120.0, 2282.743305404205, 1243.1726644709706, -6191.600721392315, 2364.465729285963, 0.0, 0.0, 0.0, 0.0, 0.0, 0.0, 0.0, 0.0, 1.667045537388423E9, 0.0, 2022-10-29 14:12:17.388
121.0, 2658.7995956987143, 1658.1052148048766, -6558.851417241152, 1948.7421901114285, 0.0, 0.0, 0.0, 0.0, 0.0, 0.0, 0.0, 0.0, 1.6670455373891213E9, 0.0, 2022-10-29 14:12:17.389
121.0, 2244.267214660067, 1367.5804364969954, -6700.258904515766, 1512.9297783249058, 0.0, 0.0, 0.0, 0.0, 0.0, 0.0, 0.0, 0.0, 1.6670455373891213E9, 0.0, 2022-10-29 14:12:17.389
122.0, 1994.2343331724405, 942.9615452778526, -7089.199150157627, 1874.611763139721, 0.0, 0.0, 0.0, 0.0, 0.0, 0.0, 0.0, 0.0, 1.6670455374027176E9, 0.0, 2022-10-29 14:12:17.402
122.0, 2290.9972646064125, 1227.0761350616813, -7159.153978828806, 2347.976510381326, 0.0, 0.0, 0.0, 0.0, 0.0, 0.0, 0.0, 0.0, 1.6670455374027176E9, 0.0, 2022-10-29 14:12:17.402
123.0, 2544.7663061497733, 1512.312694832217, -7580.532246736344, 1867.593840872869, 0.0, 0.0, 0.0, 0.0, 0.0, 0.0, 0.0, 0.0, 1.6670455374183617E9, 0.0, 2022-10-29 14:12:17.418
123.0, 2300.7210044912063, 1415.8588050249964, -7651.207006148994, 1507.1291934936307, 0.0, 0.0, 0.0, 0.0, 0.0, 0.0, 0.0, 0.0, 1.6670455374183617E9, 0.0, 2022-10-29 14:12:17.418
124.0, 2171.0642828773707, 1141.568932424765, -8024.563088675495, 1913.9031520741992, 0.0, 0.0, 0.0, 0.0, 0.0, 0.0, 0.0, 0.0, 1.667045537419235E9, 0.0, 2022-10-29 14:12:17.419
124.0, 2363.3269297494553, 1304.5219833441079, -8134.568505972158, 2377.921889326535, 0.0, 0.0, 0.0, 0.0, 0.0, 0.0, 0.0, 0.0, 1.667045537419235E9, 0.0, 2022-10-29 14:12:17.419
125.0, 2533.325952185318, 1487.154387830291, -8576.946312130895, 2812.803066024091, 0.0, 0.0, 0.0, 0.0, 0.0, 0.0, 0.0, 0.0, 1.6670455374326856E9, 0.0, 2022-10-29 14:12:17.432
125.0, 2349.7697924100794, 1486.6850303858519, -8585.30685848184, 2519.200350052677, 0.0, 0.0, 0.0, 0.0, 0.0, 0.0, 0.0, 0.0, 1.6670455374326856E9, 0.0, 2022-10-29 14:12:17.432
126.0, 2255.76179717388, 1270.520682896953, -8963.943679745775, 3001.6885832361877, 0.0, 0.0, 0.0, 0.0, 0.0, 0.0, 0.0, 0.0, 1.6670455374483457E9, 0.0, 2022-10-29 14:12:17.448
126.0, 2359.3327165967785, 1301.1710329838097, -9113.823910370003, 3374.1209104736336, 0.0, 0.0, 0.0, 0.0, 0.0, 0.0, 0.0, 0.0, 1.6670455374483457E9, 0.0, 2022-10-29 14:12:17.448
127.0, 2397.257172097452, 1318.7953115249984, -8633.719863408245, 3726.8963235439733, 0.0, 0.0, 0.0, 0.0, 0.0, 0.0, 0.0, 0.0, 1.667045537449123E9, 0.0, 2022-10-29 14:12:17.449
127.0, 2316.4659833046608, 1417.8465618514456, -8588.36983654555, 3471.650021518115, 0.0, 0.0, 0.0, 0.0, 0.0, 0.0, 0.0, 0.0, 1.667045537449123E9, 0.0, 2022-10-29 14:12:17.449
128.0, 2329.791246846784, 1363.6460617436096, -8938.605857545976, 3038.567736699246, 0.0, 0.0, 0.0, 0.0, 0.0, 0.0, 0.0, 0.0, 1.6670455374627964E9, 0.0, 2022-10-29 14:12:17.462
128.0, 2362.3601656109095, 1301.9564119745046, -9115.439547150861, 3355.047420699615, 0.0, 0.0, 0.0, 0.0, 0.0, 0.0, 0.0, 0.0, 1.6670455374627964E9, 0.0, 2022-10-29 14:12:17.462
129.0, 2332.960812059231, 1214.4614525111392, -8695.121540880762, 3651.084811542183, 0.0, 0.0, 0.0, 0.0, 0.0, 0.0, 0.0, 0.0, 1.6670455374783404E9, 0.0, 2022-10-29 14:12:17.478
129.0, 2357.6927704662085, 1474.2274236334488, -8578.406743063591, 3508.1140460860915, 0.0, 0.0, 0.0, 0.0, 0.0, 0.0, 0.0, 0.0, 1.6670455374783404E9, 0.0, 2022-10-29 14:12:17.478
130.0, 2448.8004732867703, 1531.5077313547954, -8909.445857591461, 3128.863881229423, 0.0, 0.0, 0.0, 0.0, 0.0, 0.0, 0.0, 0.0, 1.6670455374790616E9, 0.0, 2022-10-29 14:12:17.479
130.0, 2407.302543378435, 1356.7721256250516, -9117.156161230523, 3375.7477669543587, 0.0, 0.0, 0.0, 0.0, 0.0, 0.0, 0.0, 0.0, 1.6670455374790616E9, 0.0, 2022-10-29 14:12:17.479
131.0, 2303.4417817089707, 1171.0748731251806, -8709.202264213935, 3601.527397229336, 0.0, 0.0, 0.0, 0.0, 0.0, 0.0, 0.0, 0.0, 1.6670455374927292E9, 0.0, 2022-10-29 14:12:17.492
131.0, 2413.0133706107736, 1541.7662769332528, -8558.360879301094, 3540.490360002499, 0.0, 0.0, 0.0, 0.0, 0.0, 0.0, 0.0, 0.0, 1.6670455374927292E9, 0.0, 2022-10-29 14:12:17.492
132.0, 2538.520673223771, 1669.8541105156764, -8894.972444762941, 3198.99448519852, 0.0, 0.0, 0.0, 0.0, 0.0, 0.0, 0.0, 0.0, 1.6670455375084398E9, 0.0, 2022-10-29 14:12:17.508
132.0, 2438.2352559119463, 1402.959890077822, -9117.545110825915, 3398.7481516818516, 0.0, 0.0, 0.0, 0.0, 0.0, 0.0, 0.0, 0.0, 1.6670455375084398E9, 0.0, 2022-10-29 14:12:17.508
133.0, 2288.108191890642, 1144.899313335307, -8731.563126049004, 3532.215831350535, 0.0, 0.0, 0.0, 0.0, 0.0, 0.0, 0.0, 0.0, 1.6670455375091057E9, 0.0, 2022-10-29 14:12:17.509
133.0, 2446.5191343137994, 1566.0270079458132, -8514.248759323731, 3552.7965008066967, 0.0, 0.0, 0.0, 0.0, 0.0, 0.0, 0.0, 0.0, 1.6670455375091057E9, 0.0, 2022-10-29 14:12:17.509
134.0, 2561.0236512571573, 1688.4414132954553, -8902.777615970466, 3223.1972477617674, 0.0, 0.0, 0.0, 0.0, 0.0, 0.0, 0.0, 0.0, 1.667045537522704E9, 0.0, 2022-10-29 14:12:17.522
134.0, 2429.79804161191, 1387.787115957588, -9136.835514797363, 3411.200148584321, 0.0, 0.0, 0.0, 0.0, 0.0, 0.0, 0.0, 0.0, 1.667045537522704E9, 0.0, 2022-10-29 14:12:17.522
135.0, 2244.8076302036643, 1086.2689017299563, -8770.05043649301, 3529.132283837069, 0.0, 0.0, 0.0, 0.0, 0.0, 0.0, 0.0, 0.0, 1.6670455375385375E9, 0.0, 2022-10-29 14:12:17.538
