%OpenBCI Raw EEG Data
%Number of channels = 4
%Sample Rate = 200 Hz
%Board = OpenBCI_GUI$BoardGanglionBLE
Sample Index, EXG Channel 0, EXG Channel 1, EXG Channel 2, EXG Channel 3, Accel Channel 0, Accel Channel 1, Accel Channel 2, Other, Other, Other, Other, Other, Timestamp, Other, Timestamp (Formatted)
0.0, -736.1936964276247, -710.2294409852475, 845.916751277633, 1761.109539384488, 0.0, 0.0, 0.0, 0.0, 0.0, 0.0, 0.0, 0.0, 1.6670470231863377E9, 0.0, 2022-10-29 14:37:03.186
1.0, -878.4333114423789, -818.9483326971531, 712.888509853743, 1958.6117860944942, 0.0, 0.01600000075995922, 0.0, 0.0, 0.0, 0.0, 0.0, 0.0, 1.6670470231995842E9, 0.0, 2022-10-29 14:37:03.199
1.0, -826.5534192570485, -749.4722112203017, 884.9126881156117, 2181.0554256089963, 0.0, 0.01600000075995922, 0.0, 0.0, 0.0, 0.0, 0.0, 0.0, 1.6670470231995842E9, 0.0, 2022-10-29 14:37:03.199
2.0, -762.6011300147511, -695.5166745595634, 1125.612649263814, 2271.5778340864927, 0.0, 0.01600000075995922, 0.0, 0.0, 0.0, 0.0, 0.0, 0.0, 1.667047023216794E9, 0.0, 2022-10-29 14:37:03.216
2.0, -719.5978903742507, -684.377382541541, 895.3264395422302, 2247.2142558251508, 0.0, 0.01600000075995922, 0.0, 0.0, 0.0, 0.0, 0.0, 0.0, 1.667047023216794E9, 0.0, 2022-10-29 14:37:03.216
3.0, -893.5742964129895, -822.9107567002065, 713.3653470980935, 2465.3345709908754, 0.0, 0.01600000075995922, 0.0, 0.0, 0.0, 0.0, 0.0, 0.0, 1.667047023217213E9, 0.0, 2022-10-29 14:37:03.217
3.0, -830.6168205589056, -754.859537106473, 871.8286481206305, 2651.6470370334573, 0.0, 0.01600000075995922, 0.0, 0.0, 0.0, 0.0, 0.0, 0.0, 1.667047023217213E9, 0.0, 2022-10-29 14:37:03.217
4.0, -766.4962358186021, -708.619414054323, 640.8916958067566, 2770.12145777978, 0.0, 0.01600000075995922, 0.0, 0.0, 0.0, 0.0, 0.0, 0.0, 1.667047023229453E9, 0.0, 2022-10-29 14:37:03.229
4.0, -722.1241927943192, -692.0909262001514, 860.281707007438, 2714.196863792371, 0.0, 0.01600000075995922, 0.0, 0.0, 0.0, 0.0, 0.0, 0.0, 1.667047023229453E9, 0.0, 2022-10-29 14:37:03.229
5.0, -898.4230767055415, -836.2640694919974, 717.2193140024319, 2494.5076605952345, 0.0, 0.01600000075995922, 0.0, 0.0, 0.0, 0.0, 0.0, 0.0, 1.6670470232451797E9, 0.0, 2022-10-29 14:37:03.245
5.0, -845.9747197269462, -765.9876094246283, 867.3089790241793, 2660.250676881522, 0.0, 0.01600000075995922, 0.0, 0.0, 0.0, 0.0, 0.0, 0.0, 1.6670470232451797E9, 0.0, 2022-10-29 14:37:03.245
6.0, -779.4680788149126, -732.9418534161523, 635.8559205164202, 2776.769129951019, 0.0, 0.01600000075995922, 0.0, 0.0, 0.0, 0.0, 0.0, 0.0, 1.6670470232459023E9, 0.0, 2022-10-29 14:37:03.245
6.0, -738.480645250529, -718.4553509377874, 858.5781825776212, 2726.8433354925364, 0.0, 0.01600000075995922, 0.0, 0.0, 0.0, 0.0, 0.0, 0.0, 1.6670470232459023E9, 0.0, 2022-10-29 14:37:03.245
7.0, -910.0784749174491, -838.9063088106923, 713.0063167023472, 2482.6503077857196, 0.0, 0.01600000075995922, 0.0, 0.0, 0.0, 0.0, 0.0, 0.0, 1.6670470232594528E9, 0.0, 2022-10-29 14:37:03.259
7.0, -836.6268397876993, -756.4190753879957, 862.0263703367673, 2653.7563406084664, 0.0, 0.01600000075995922, 0.0, 0.0, 0.0, 0.0, 0.0, 0.0, 1.6670470232594528E9, 0.0, 2022-10-29 14:37:03.259
8.0, -771.9041311545298, -722.7936348863877, 647.1635080324486, 2779.845197664574, 0.0, 0.01600000075995922, 0.0, 0.0, 0.0, 0.0, 0.0, 0.0, 1.6670470232748764E9, 0.0, 2022-10-29 14:37:03.274
8.0, -716.4956433610059, -690.4752894192934, 872.5859778616577, 2731.273246990051, 0.0, 0.01600000075995922, 0.0, 0.0, 0.0, 0.0, 0.0, 0.0, 1.6670470232748764E9, 0.0, 2022-10-29 14:37:03.274
9.0, -886.3058008491062, -814.2323188530281, 728.5586906680837, 2499.866937231738, 0.0, 0.01600000075995922, 0.0, 0.0, 0.0, 0.0, 0.0, 0.0, 1.6670470232901762E9, 0.0, 2022-10-29 14:37:03.290
9.0, -822.6863627028652, -743.0956817958504, 894.5728497011587, 2644.4196803690866, 0.0, 0.01600000075995922, 0.0, 0.0, 0.0, 0.0, 0.0, 0.0, 1.6670470232901762E9, 0.0, 2022-10-29 14:37:03.290
10.0, -770.1370284254663, -718.195427890867, 681.1835079793818, 2789.1968175037764, 0.0, 0.01600000075995922, 0.8800000417977571, 0.0, 0.0, 0.0, 0.0, 0.0, 1.6670470232908604E9, 0.0, 2022-10-29 14:37:03.290
10.0, -712.9259088532999, -683.786478348542, 847.3622226105072, 2722.1609807480127, 0.0, 0.01600000075995922, 0.8800000417977571, 0.0, 0.0, 0.0, 0.0, 0.0, 1.6670470232908604E9, 0.0, 2022-10-29 14:37:03.290
11.0, -875.4731806274503, -808.8412530669011, 723.0741273830645, 2493.391300458461, 0.0, 0.0, 0.8800000417977571, 0.0, 0.0, 0.0, 0.0, 0.0, 1.6670470233051195E9, 0.0, 2022-10-29 14:37:03.305
11.0, -834.1323265172541, -758.345123865176, 902.3798908586614, 2684.262704547029, 0.0, 0.0, 0.8800000417977571, 0.0, 0.0, 0.0, 0.0, 0.0, 1.6670470233051195E9, 0.0, 2022-10-29 14:37:03.305
12.0, -751.3459010981023, -698.1776133780368, 659.7594910832122, 2774.014693633653, 0.0, 0.0, 0.8800000417977571, 0.0, 0.0, 0.0, 0.0, 0.0, 1.6670470233058395E9, 0.0, 2022-10-29 14:37:03.305
12.0, -733.355112361256, -703.4059935160913, 878.3342040935531, 2771.8736009090208, 0.0, 0.0, 0.8800000417977571, 0.0, 0.0, 0.0, 0.0, 0.0, 1.6670470233058395E9, 0.0, 2022-10-29 14:37:03.305
13.0, -879.046655035112, -807.6108259814791, 710.958721476607, 2950.8783024381846, 0.0, 0.0, 0.8800000417977571, 0.0, 0.0, 0.0, 0.0, 0.0, 1.667047023319497E9, 0.0, 2022-10-29 14:37:03.319
13.0, -867.4978439719416, -792.1799987643026, 865.65968314372, 3188.659271670971, 0.0, 0.0, 0.8800000417977571, 0.0, 0.0, 0.0, 0.0, 0.0, 1.667047023319497E9, 0.0, 2022-10-29 14:37:03.319
14.0, -740.4571823771112, -682.1858011675067, 686.0341582219116, 3242.6578171812, 0.0, 0.0, 0.8800000417977571, 0.0, 0.0, 0.0, 0.0, 0.0, 1.667047023335151E9, 0.0, 2022-10-29 14:37:03.335
14.0, -740.1972593301907, -710.17521243589, 874.7195907863788, 3276.301957182586, 0.0, 0.0, 0.8800000417977571, 0.0, 0.0, 0.0, 0.0, 0.0, 1.667047023335151E9, 0.0, 2022-10-29 14:37:03.335
15.0, -875.3310644291341, -818.1947428560816, 722.4869630900212, 3434.6549311564304, 0.0, 0.0, 0.8800000417977571, 0.0, 0.0, 0.0, 0.0, 0.0, 1.6670470233358705E9, 0.0, 2022-10-29 14:37:03.335
15.0, -852.6747504975647, -772.6764204953797, 903.3560047470964, 3196.3485059798695, 0.0, 0.0, 0.8800000417977571, 0.0, 0.0, 0.0, 0.0, 0.0, 1.6670470233358705E9, 0.0, 2022-10-29 14:37:03.335
16.0, -758.5302489129826, -701.7940966351889, 1143.2967662042938, 3244.6250045578927, 0.0, 0.0, 0.8800000417977571, 0.0, 0.0, 0.0, 0.0, 0.0, 1.667047023349465E9, 0.0, 2022-10-29 14:37:03.349
16.0, -745.9024767125957, -714.5546352840029, 901.3906873203814, 3283.1871130010113, 0.0, 0.0, 0.8800000417977571, 0.0, 0.0, 0.0, 0.0, 0.0, 1.667047023349465E9, 0.0, 2022-10-29 14:37:03.349
17.0, -918.1435691718943, -849.3855084865354, 678.2532963640988, 3435.877878441941, 0.0, 0.0, 0.8800000417977571, 0.0, 0.0, 0.0, 0.0, 0.0, 1.6670470233651576E9, 0.0, 2022-10-29 14:37:03.365
17.0, -873.5938808997162, -787.5574824190699, 853.4900486879051, 3190.989229343366, 0.0, 0.0, 0.8800000417977571, 0.0, 0.0, 0.0, 0.0, 0.0, 1.6670470233651576E9, 0.0, 2022-10-29 14:37:03.365
18.0, -767.4480403573252, -704.5317034027539, 641.8472402454354, 3253.0472592581064, 0.0, 0.0, 0.8800000417977571, 0.0, 0.0, 0.0, 0.0, 0.0, 1.6670470233658707E9, 0.0, 2022-10-29 14:37:03.365
18.0, -758.8107414096594, -717.1837849528529, 883.2054237858392, 3287.9854046441615, 0.0, 0.0, 0.8800000417977571, 0.0, 0.0, 0.0, 0.0, 0.0, 1.6670470233658707E9, 0.0, 2022-10-29 14:37:03.365
19.0, -894.726185599342, -823.5353199928068, 687.754512201529, 3442.0000946694054, 0.0, 0.0, 0.8800000417977571, 0.0, 0.0, 0.0, 0.0, 0.0, 1.6670470233795154E9, 0.0, 2022-10-29 14:37:03.379
19.0, -866.3889636350796, -783.4323727679439, 901.033526874613, 3203.035447100643, 0.0, 0.0, 0.8800000417977571, 0.0, 0.0, 0.0, 0.0, 0.0, 1.6670470233795154E9, 0.0, 2022-10-29 14:37:03.379
20.0, -761.1780980816111, -715.0520419781096, 661.8052163589746, 3259.0909375865012, 0.0, 0.0, 0.5120000243186951, 0.0, 0.0, 0.0, 0.0, 0.0, 1.6670470233951838E9, 0.0, 2022-10-29 14:37:03.395
20.0, -746.7364744027145, -720.2131039169617, 889.3893483625725, 3276.077563185245, 0.0, 0.0, 0.5120000243186951, 0.0, 0.0, 0.0, 0.0, 0.0, 1.6670470233951838E9, 0.0, 2022-10-29 14:37:03.395
21.0, -891.5229612872936, -814.5146812996827, 694.544300571084, 3440.773407483939, 0.0, 0.01600000075995922, 0.5120000243186951, 0.0, 0.0, 0.0, 0.0, 0.0, 1.6670470233958764E9, 0.0, 2022-10-29 14:37:03.395
21.0, -825.4875477696769, -736.2423151270486, 911.4547581011429, 3211.1098911049776, 0.0, 0.01600000075995922, 0.5120000243186951, 0.0, 0.0, 0.0, 0.0, 0.0, 1.6670470233958764E9, 0.0, 2022-10-29 14:37:03.395
22.0, -751.2093947497196, -685.9257011231966, 1152.3192748473957, 3279.0246043503284, 0.0, 0.01600000075995922, 0.5120000243186951, 0.0, 0.0, 0.0, 0.0, 0.0, 1.6670470234095244E9, 0.0, 2022-10-29 14:37:03.409
22.0, -703.3106260672212, -673.4550047209486, 909.6165972729214, 3269.4224112140946, 0.0, 0.01600000075995922, 0.5120000243186951, 0.0, 0.0, 0.0, 0.0, 0.0, 1.6670470234095244E9, 0.0, 2022-10-29 14:37:03.409
23.0, -852.199783203192, -797.6795216491446, 754.0330192162655, 3487.157516684383, 0.0, 0.01600000075995922, 0.5120000243186951, 0.0, 0.0, 0.0, 0.0, 0.0, 1.6670470234257565E9, 0.0, 2022-10-29 14:37:03.425
23.0, -806.6665012426674, -717.9111954942346, 923.3644695100375, 3684.207235499751, 0.0, 0.01600000075995922, 0.5120000243186951, 0.0, 0.0, 0.0, 0.0, 0.0, 1.6670470234257565E9, 0.0, 2022-10-29 14:37:03.425
24.0, -739.3221227405593, -681.9183983206749, 1148.9589747372083, 3797.696369605139, 0.0, 0.01600000075995922, 0.5120000243186951, 0.0, 0.0, 0.0, 0.0, 0.0, 1.667047023426526E9, 0.0, 2022-10-29 14:37:03.426
24.0, -675.3156049489044, -641.0207223552279, 904.0310566890985, 3724.5757156214677, 0.0, 0.01600000075995922, 0.5120000243186951, 0.0, 0.0, 0.0, 0.0, 0.0, 1.667047023426526E9, 0.0, 2022-10-29 14:37:03.426
25.0, -846.1355354250409, -775.2606913647614, 731.438413633965, 3935.3733066739514, 0.0, 0.01600000075995922, 0.5120000243186951, 0.0, 0.0, 0.0, 0.0, 0.0, 1.6670470234394531E9, 0.0, 2022-10-29 14:37:03.439
25.0, -671.5158665939234, -585.1241776174866, 503.770133881364, 4116.808943174314, 0.0, 0.01600000075995922, 0.5120000243186951, 0.0, 0.0, 0.0, 0.0, 0.0, 1.6670470234394531E9, 0.0, 2022-10-29 14:37:03.439
26.0, -712.1442697625607, -658.8880943935364, 275.0546821411699, 3940.117369767744, 0.0, 0.01600000075995922, 0.5120000243186951, 0.0, 0.0, 0.0, 0.0, 0.0, 1.6670470234551055E9, 0.0, 2022-10-29 14:37:03.455
26.0, -734.5425305971876, -699.0471401177347, 384.8431852404028, 3710.145311642438, 0.0, 0.01600000075995922, 0.5120000243186951, 0.0, 0.0, 0.0, 0.0, 0.0, 1.6670470234551055E9, 0.0, 2022-10-29 14:37:03.455
27.0, -712.5911878072657, -637.7969285934232, 294.41988411173224, 3823.2080971528776, 0.0, 0.01600000075995922, 0.5120000243186951, 0.0, 0.0, 0.0, 0.0, 0.0, 1.667047023455845E9, 0.0, 2022-10-29 14:37:03.455
27.0, -670.4200759069063, -588.3816304788925, 53.568457015324384, 3744.2101903888397, 0.0, 0.01600000075995922, 0.5120000243186951, 0.0, 0.0, 0.0, 0.0, 0.0, 1.667047023455845E9, 0.0, 2022-10-29 14:37:03.455
28.0, -778.1871630800888, -721.5276787513867, 233.48008428374305, 3976.385049588047, 0.0, 0.01600000075995922, 0.5120000243186951, 0.0, 0.0, 0.0, 0.0, 0.0, 1.6670470234696548E9, 0.0, 2022-10-29 14:37:03.469
28.0, -791.729340819642, -753.5374824721366, 352.42012257454917, 4181.133352462202, 0.0, 0.01600000075995922, 0.5120000243186951, 0.0, 0.0, 0.0, 0.0, 0.0, 1.6670470234696548E9, 0.0, 2022-10-29 14:37:03.469
29.0, -735.8010069322772, -667.3757973429747, 283.16465519508347, 4300.224856701214, 0.0, 0.01600000075995922, 0.5120000243186951, 0.0, 0.0, 0.0, 0.0, 0.0, 1.66704702348522E9, 0.0, 2022-10-29 14:37:03.485
29.0, -706.8803605749272, -617.4256935347803, 515.0122731481679, 4240.397677110042, 0.0, 0.01600000075995922, 0.5120000243186951, 0.0, 0.0, 0.0, 0.0, 0.0, 1.66704702348522E9, 0.0, 2022-10-29 14:37:03.485
30.0, -795.6076170736924, -728.5699103679508, 711.5028769201599, 4445.41338283103, 0.0, 0.01600000075995922, 0.7520000357180834, 0.0, 0.0, 0.0, 0.0, 0.0, 1.667047023485819E9, 0.0, 2022-10-29 14:37:03.485
30.0, -815.6235616365448, -775.1466244161129, 819.6981826382689, 4687.8075186591595, 0.0, 0.01600000075995922, 0.7520000357180834, 0.0, 0.0, 0.0, 0.0, 0.0, 1.667047023485819E9, 0.0, 2022-10-29 14:37:03.485
31.0, -792.1201603650115, -720.9610839080997, 737.2558280150406, 4782.750488884281, 0.0, 0.03200000151991844, 0.7520000357180834, 0.0, 0.0, 0.0, 0.0, 0.0, 1.6670470234994392E9, 0.0, 2022-10-29 14:37:03.499
31.0, -702.3550816285424, -628.7875096001662, 532.6253319894895, 4690.21040438069, 0.0, 0.03200000151991844, 0.7520000357180834, 0.0, 0.0, 0.0, 0.0, 0.0, 1.6670470234994392E9, 0.0, 2022-10-29 14:37:03.499
32.0, -731.4159742342308, -682.1988908173516, 737.0856625670567, 4896.168564890511, 0.0, 0.03200000151991844, 0.7520000357180834, 0.0, 0.0, 0.0, 0.0, 0.0, 1.667047023515108E9, 0.0, 2022-10-29 14:37:03.515
32.0, -763.5491946535185, -718.8723497828469, 858.0602064337581, 4731.801831787918, 0.0, 0.03200000151991844, 0.7520000357180834, 0.0, 0.0, 0.0, 0.0, 0.0, 1.667047023515108E9, 0.0, 2022-10-29 14:37:03.515
33.0, -827.3032691981643, -749.5918880188838, 726.6102027911693, 4830.234128671698, 0.0, 0.03200000151991844, 0.7520000357180834, 0.0, 0.0, 0.0, 0.0, 0.0, 1.6670470235158777E9, 0.0, 2022-10-29 14:37:03.515
33.0, -706.33994503133, -623.9836081070825, 509.61933741206303, 4656.160485234112, 0.0, 0.03200000151991844, 0.7520000357180834, 0.0, 0.0, 0.0, 0.0, 0.0, 1.6670470235158777E9, 0.0, 2022-10-29 14:37:03.515
34.0, -753.2850392251275, -694.1235618260689, 289.8796455655247, 4469.920947240666, 0.0, 0.03200000151991844, 0.7520000357180834, 0.0, 0.0, 0.0, 0.0, 0.0, 1.6670470235294592E9, 0.0, 2022-10-29 14:37:03.529
34.0, -789.4685712964274, -753.3411377244629, 345.95570550113916, 4673.09101233352, 0.0, 0.03200000151991844, 0.7520000357180834, 0.0, 0.0, 0.0, 0.0, 0.0, 1.6670470235294592E9, 0.0, 2022-10-29 14:37:03.529
35.0, -810.157697851304, -734.3069168999791, 262.6157748885453, 4821.641708523501, 0.0, 0.03200000151991844, 0.7520000357180834, 0.0, 0.0, 0.0, 0.0, 0.0, 1.6670470235451517E9, 0.0, 2022-10-29 14:37:03.545
35.0, -701.6258011371829, -629.8627308374271, 26.888010731432587, 4663.425240898039, 0.0, 0.03200000151991844, 0.7520000357180834, 0.0, 0.0, 0.0, 0.0, 0.0, 1.6670470235451517E9, 0.0, 2022-10-29 14:37:03.545
36.0, -764.4804297424853, -708.7503105527721, -215.6949900444597, 4462.338300080504, 0.0, 0.03200000151991844, 0.7520000357180834, 0.0, 0.0, 0.0, 0.0, 0.0, 1.667047023545838E9, 0.0, 2022-10-29 14:37:03.545
36.0, -805.092003361322, -781.2520110937767, -130.74316255096346, 4695.109673322644, 0.0, 0.03200000151991844, 0.7520000357180834, 0.0, 0.0, 0.0, 0.0, 0.0, 1.667047023545838E9, 0.0, 2022-10-29 14:37:03.545
37.0, -826.6974054053426, -758.5190292131156, -270.3536278968677, 4793.706525804475, 0.0, 0.03200000151991844, 0.7520000357180834, 0.0, 0.0, 0.0, 0.0, 0.0, 1.6670470235594995E9, 0.0, 2022-10-29 14:37:03.559
37.0, -710.8652239777148, -634.8779366780072, -457.687086627353, 4658.333367108367, 0.0, 0.03200000151991844, 0.7520000357180834, 0.0, 0.0, 0.0, 0.0, 0.0, 1.6670470235594995E9, 0.0, 2022-10-29 14:37:03.559
38.0, -752.8549507302232, -703.4658319153823, -699.5071478122845, 4433.580339371227, 0.0, 0.03200000151991844, 0.7520000357180834, 0.0, 0.0, 0.0, 0.0, 0.0, 1.6670470235750904E9, 0.0, 2022-10-29 14:37:03.575
38.0, -776.0460703554563, -740.5805990756489, -592.3627539817244, 4220.4004320469685, 0.0, 0.03200000151991844, 0.7520000357180834, 0.0, 0.0, 0.0, 0.0, 0.0, 1.6670470235750904E9, 0.0, 2022-10-29 14:37:03.575
39.0, -806.5449544941075, -739.9803451327607, -718.943407882005, 4309.879408436827, 0.0, 0.03200000151991844, 0.7520000357180834, 0.0, 0.0, 0.0, 0.0, 0.0, 1.6670470235758953E9, 0.0, 2022-10-29 14:37:03.575
39.0, -696.8611685936339, -626.4295026781037, -938.9149735257961, 4193.478762215935, 0.0, 0.03200000151991844, 0.7520000357180834, 0.0, 0.0, 0.0, 0.0, 0.0, 1.6670470235758953E9, 0.0, 2022-10-29 14:37:03.575
40.0, -770.6886636689305, -719.3678865269758, -706.1772593832575, 3977.4397013755515, 0.0, 0.03200000151991844, 0.8800000417977571, 0.0, 0.0, 0.0, 0.0, 0.0, 1.6670470235894475E9, 0.0, 2022-10-29 14:37:03.589
40.0, -785.2443542964756, -760.2188137429766, -631.7607300649397, 4170.8074886845425, 0.0, 0.03200000151991844, 0.8800000417977571, 0.0, 0.0, 0.0, 0.0, 0.0, 1.6670470235894475E9, 0.0, 2022-10-29 14:37:03.589
41.0, -773.8731884812005, -714.3732501361519, -696.7788907946087, 4325.125110606197, 0.0, 0.03200000151991844, 0.8800000417977571, 0.0, 0.0, 0.0, 0.0, 0.0, 1.6670470236051507E9, 0.0, 2022-10-29 14:37:03.605
41.0, -700.3168361526914, -626.8595911730081, -940.689556054771, 4212.232490543742, 0.0, 0.03200000151991844, 0.8800000417977571, 0.0, 0.0, 0.0, 0.0, 0.0, 1.6670470236051507E9, 0.0, 2022-10-29 14:37:03.605
42.0, -805.4323342572898, -748.1912954854779, -722.6608684379607, 4028.966173015069, 0.0, 0.03200000151991844, 0.8800000417977571, 0.0, 0.0, 0.0, 0.0, 0.0, 1.6670470236058724E9, 0.0, 2022-10-29 14:37:03.605
42.0, -780.2422381057404, -744.25879068207, -640.7869786079973, 4149.215176290367, 0.0, 0.03200000151991844, 0.8800000417977571, 0.0, 0.0, 0.0, 0.0, 0.0, 1.6670470236058724E9, 0.0, 2022-10-29 14:37:03.605
43.0, -761.4062319789082, -678.8273710072972, -707.1851624213159, 4325.160639655776, 0.0, 0.03200000151991844, 0.8800000417977571, 0.0, 0.0, 0.0, 0.0, 0.0, 1.6670470236194303E9, 0.0, 2022-10-29 14:37:03.619
43.0, -695.5652932589874, -618.5813226210885, -923.768378705252, 4223.78317155689, 0.0, 0.03200000151991844, 0.8800000417977571, 0.0, 0.0, 0.0, 0.0, 0.0, 1.6670470236194303E9, 0.0, 2022-10-29 14:37:03.619
44.0, -817.2560279672034, -770.1875170748681, -739.9261165834032, 4033.010874817148, 0.0, 0.03200000151991844, 0.8800000417977571, 0.0, 0.0, 0.0, 0.0, 0.0, 1.6670470236351528E9, 0.0, 2022-10-29 14:37:03.635
44.0, -771.5451007587835, -742.2785136555322, -638.4850701852702, 4123.871744240634, 0.0, 0.03200000151991844, 0.8800000417977571, 0.0, 0.0, 0.0, 0.0, 0.0, 1.6670470236351528E9, 0.0, 2022-10-29 14:37:03.635
45.0, -721.8698795973323, -660.9637388689443, -658.4075172492303, 4326.624810488429, 0.0, 0.03200000151991844, 0.8800000417977571, 0.0, 0.0, 0.0, 0.0, 0.0, 1.6670470236359808E9, 0.0, 2022-10-29 14:37:03.635
45.0, -677.9110955181532, -615.4977751076221, -440.8575368267484, 4245.304425851908, 0.0, 0.03200000151991844, 0.8800000417977571, 0.0, 0.0, 0.0, 0.0, 0.0, 1.6670470236359808E9, 0.0, 2022-10-29 14:37:03.635
46.0, -813.5179979614913, -762.2084405194037, -219.29464375181124, 4035.8849879330955, 0.0, 0.03200000151991844, 0.8800000417977571, 0.0, 0.0, 0.0, 0.0, 0.0, 1.667047023649443E9, 0.0, 2022-10-29 14:37:03.649
46.0, -771.7302258065902, -751.820868392475, -166.472296777647, 4123.140593799297, 0.0, 0.03200000151991844, 0.8800000417977571, 0.0, 0.0, 0.0, 0.0, 0.0, 1.667047023649443E9, 0.0, 2022-10-29 14:37:03.649
47.0, -734.4976517977193, -682.3727961652912, -196.79914551833645, 4308.282471155748, 0.0, 0.03200000151991844, 0.8800000417977571, 0.0, 0.0, 0.0, 0.0, 0.0, 1.6670470236650846E9, 0.0, 2022-10-29 14:37:03.665
47.0, -681.3948123268783, -617.5304107335396, -426.11298125144094, 4255.553621680476, 0.0, 0.03200000151991844, 0.8800000417977571, 0.0, 0.0, 0.0, 0.0, 0.0, 1.6670470236650846E9, 0.0, 2022-10-29 14:37:03.665
48.0, -819.2980133430101, -771.4216840602458, -221.01312778145075, 4051.8749301936477, 0.0, 0.03200000151991844, 0.8800000417977571, 0.0, 0.0, 0.0, 0.0, 0.0, 1.6670470236658545E9, 0.0, 2022-10-29 14:37:03.665
48.0, -771.238428962417, -743.2434078441001, -156.86636374145746, 4100.7591625144705, 0.0, 0.03200000151991844, 0.8800000417977571, 0.0, 0.0, 0.0, 0.0, 0.0, 1.6670470236658545E9, 0.0, 2022-10-29 14:37:03.665
49.0, -712.2583367112093, -651.9131809761748, -159.41697551123798, 4314.126064836513, 0.0, 0.03200000151991844, 0.8800000417977571, 0.0, 0.0, 0.0, 0.0, 0.0, 1.6670470236794362E9, 0.0, 2022-10-29 14:37:03.679
49.0, -678.0719112162478, -611.88129185047, 45.44352436158806, 4265.956153407227, 0.0, 0.03200000151991844, 0.8800000417977571, 0.0, 0.0, 0.0, 0.0, 0.0, 1.6670470236794362E9, 0.0, 2022-10-29 14:37:03.679
50.0, -819.6439540889114, -776.0685097551905, 254.1224620891735, 4049.4421252724715, 0.0, 0.03200000151991844, 0.9280000440776348, 0.0, 0.0, 0.0, 0.0, 0.0, 1.6670470236951265E9, 0.0, 2022-10-29 14:37:03.695
50.0, -754.1190369152464, -736.1394678782672, 350.6156208459288, 4097.933668097947, 0.0, 0.03200000151991844, 0.9280000440776348, 0.0, 0.0, 0.0, 0.0, 0.0, 1.6670470236951265E9, 0.0, 2022-10-29 14:37:03.695
51.0, -715.4017226239666, -666.7848931499757, 308.0331199504435, 4329.865433800034, 0.0, 0.03200000151991844, 0.9280000440776348, 0.0, 0.0, 0.0, 0.0, 0.0, 1.6670470236959229E9, 0.0, 2022-10-29 14:37:03.695
51.0, -690.2546353219077, -629.3858935930766, 540.7222153935581, 4250.807688636705, 0.0, 0.03200000151991844, 0.9280000440776348, 0.0, 0.0, 0.0, 0.0, 0.0, 1.6670470236959229E9, 0.0, 2022-10-29 14:37:03.695
52.0, -792.1725189643912, -754.9848237549886, 776.5154277998954, 4040.8272657245398, -0.01600000075995922, 0.03200000151991844, 0.9280000440776348, 0.0, 0.0, 0.0, 0.0, 0.0, 1.6670470237094853E9, 0.0, 2022-10-29 14:37:03.709
52.0, -774.6978364214301, -763.5940734529868, 846.1037462754175, 4130.3193317642435, -0.01600000075995922, 0.03200000151991844, 0.9280000440776348, 0.0, 0.0, 0.0, 0.0, 0.0, 1.6670470237094853E9, 0.0, 2022-10-29 14:37:03.709
53.0, -726.0249084481038, -665.1281174696051, 767.7079634042457, 4309.914937486406, -0.01600000075995922, 0.03200000151991844, 0.9280000440776348, 0.0, 0.0, 0.0, 0.0, 0.0, 1.6670470237251282E9, 0.0, 2022-10-29 14:37:03.725
53.0, -695.0398373152129, -624.3594680526294, 549.2173981429078, 4274.91695370106, -0.01600000075995922, 0.03200000151991844, 0.9280000440776348, 0.0, 0.0, 0.0, 0.0, 0.0, 1.6670470237251282E9, 0.0, 2022-10-29 14:37:03.725
54.0, -817.272857517004, -775.6028922107071, 725.9426306490786, 4476.443332763389, -0.01600000075995922, 0.03200000151991844, 0.9280000440776348, 0.0, 0.0, 0.0, 0.0, 0.0, 1.66704702372583E9, 0.0, 2022-10-29 14:37:03.725
54.0, -803.511895630043, -785.8277786895633, 837.9301949222572, 4667.395144701004, -0.01600000075995922, 0.03200000151991844, 0.9280000440776348, 0.0, 0.0, 0.0, 0.0, 0.0, 1.66704702372583E9, 0.0, 2022-10-29 14:37:03.725
55.0, -793.6030306974426, -727.288994633127, 757.5709645743482, 4823.410681202542, -0.01600000075995922, 0.03200000151991844, 0.9280000440776348, 0.0, 0.0, 0.0, 0.0, 0.0, 1.6670470237394464E9, 0.0, 2022-10-29 14:37:03.739
55.0, -734.2395987007767, -654.6863167933188, 987.9862008444034, 4710.188949943986, -0.01600000075995922, 0.03200000151991844, 0.9280000440776348, 0.0, 0.0, 0.0, 0.0, 0.0, 1.6670470237394464E9, 0.0, 2022-10-29 14:37:03.739
56.0, -692.1993832988665, -642.8158743339591, 754.6257933592424, 4820.693643884733, -0.01600000075995922, 0.03200000151991844, 0.9280000440776348, 0.0, 0.0, 0.0, 0.0, 0.0, 1.667047023755144E9, 0.0, 2022-10-29 14:37:03.755
56.0, -670.5397527054884, -657.5361205595545, 925.9543502293527, 4711.67743012635, -0.01600000075995922, 0.03200000151991844, 0.9280000440776348, 0.0, 0.0, 0.0, 0.0, 0.0, 1.667047023755144E9, 0.0, 2022-10-29 14:37:03.755
57.0, -815.909663983155, -767.354542858433, 782.5852854279801, 4933.302031550556, -0.01600000075995922, 0.03200000151991844, 0.9280000440776348, 0.0, 0.0, 0.0, 0.0, 0.0, 1.6670470237558756E9, 0.0, 2022-10-29 14:37:03.755
57.0, -781.6970591885038, -719.3828461267985, 969.1127957180142, 4715.142447435297, -0.01600000075995922, 0.03200000151991844, 0.9280000440776348, 0.0, 0.0, 0.0, 0.0, 0.0, 1.6670470237558756E9, 0.0, 2022-10-29 14:37:03.755
58.0, -726.529794942122, -682.1633617677726, 1212.2960504367948, 4804.778499623295, -0.01600000075995922, 0.03200000151991844, 0.9280000440776348, 0.0, 0.0, 0.0, 0.0, 0.0, 1.667047023769608E9, 0.0, 2022-10-29 14:37:03.769
58.0, -686.380098967813, -660.9637388689443, 1422.871117441915, 4707.954359720461, -0.01600000075995922, 0.03200000151991844, 0.9280000440776348, 0.0, 0.0, 0.0, 0.0, 0.0, 1.667047023769608E9, 0.0, 2022-10-29 14:37:03.769
59.0, -853.5910259867087, -793.3300180006772, 1243.879505562596, 4931.59850712074, -0.01600000075995922, 0.03200000151991844, 0.9280000440776348, 0.0, 0.0, 0.0, 0.0, 0.0, 1.6670470237852826E9, 0.0, 2022-10-29 14:37:03.785
59.0, -776.2573747029528, -706.1604298334569, 1454.7388049643487, 5169.368256653659, -0.01600000075995922, 0.03200000151991844, 0.9280000440776348, 0.0, 0.0, 0.0, 0.0, 0.0, 1.6670470237852826E9, 0.0, 2022-10-29 14:37:03.785
60.0, -726.5578441917896, -685.5423613777384, 1226.1093709231354, 5298.909041368868, -0.01600000075995922, 0.03200000151991844, 0.9600000455975533, 0.0, 0.0, 0.0, 0.0, 0.0, 1.667047023785843E9, 0.0, 2022-10-29 14:37:03.785
60.0, -660.9506492190994, -650.1273787473328, 1412.1058154194616, 5187.289857241325, -0.01600000075995922, 0.03200000151991844, 0.9600000455975533, 0.0, 0.0, 0.0, 0.0, 0.0, 1.667047023785843E9, 0.0, 2022-10-29 14:37:03.785
61.0, -860.9978978489526, -794.9737040312029, 1227.923222401645, 4953.751804508269, -0.01600000075995922, 0.03200000151991844, 0.9600000455975533, 0.0, 0.0, 0.0, 0.0, 0.0, 1.6670470237994514E9, 0.0, 2022-10-29 14:37:03.799
61.0, -775.8029768583365, -719.5324421250261, 1438.6067465054803, 5167.593674124684, -0.01600000075995922, 0.03200000151991844, 0.9600000455975533, 0.0, 0.0, 0.0, 0.0, 0.0, 1.6670470237994514E9, 0.0, 2022-10-29 14:37:03.799
62.0, -701.6744198366068, -661.0553664178587, 1240.1919642062858, 5299.99174240604, 0.0, 0.03200000151991844, 0.9600000455975533, 0.0, 0.0, 0.0, 0.0, 0.0, 1.6670470238152018E9, 0.0, 2022-10-29 14:37:03.815
62.0, -684.8691793857142, -664.0323267825879, 1416.61052491609, 5208.826071136165, 0.0, 0.03200000151991844, 0.9600000455975533, 0.0, 0.0, 0.0, 0.0, 0.0, 1.6670470238152018E9, 0.0, 2022-10-29 14:37:03.815
63.0, -844.3572129961103, -790.6578594823368, 1245.2109099468216, 5420.323023480363, 0.0, 0.03200000151991844, 0.9600000455975533, 0.0, 0.0, 0.0, 0.0, 0.0, 1.6670470238158135E9, 0.0, 2022-10-29 14:37:03.815
63.0, -810.4849390974268, -744.5972516280599, 1413.2371351560578, 5659.891664891969, 0.0, 0.03200000151991844, 0.9600000455975533, 0.0, 0.0, 0.0, 0.0, 0.0, 1.6670470238158135E9, 0.0, 2022-10-29 14:37:03.815
64.0, -705.6667630393058, -650.7033233405091, 1216.5464467364363, 5754.09787482582, 0.0, 0.03200000151991844, 0.9600000455975533, 0.0, 0.0, 0.0, 0.0, 0.0, 1.6670470238458643E9, 0.0, 2022-10-29 14:37:03.845
64.0, -681.0750508806668, -673.7897257669829, 1418.1644533476792, 5692.462453606073, 0.0, 0.03200000151991844, 0.9600000455975533, 0.0, 0.0, 0.0, 0.0, 0.0, 1.6670470238458643E9, 0.0, 2022-10-29 14:37:03.845
65.0, -823.0640925983898, -776.1320880544372, 1260.8343420117162, 5923.4629842191935, 0.0, 0.03200000151991844, 0.9600000455975533, 0.0, 0.0, 0.0, 0.0, 0.0, 1.6670470238466997E9, 0.0, 2022-10-29 14:37:03.846
65.0, -798.1376593937166, -732.4799757716246, 1446.9953421060927, 6167.998212771956, 0.0, 0.03200000151991844, 0.9600000455975533, 0.0, 0.0, 0.0, 0.0, 0.0, 1.6670470238466997E9, 0.0, 2022-10-29 14:37:03.846
66.0, -695.8700951053761, -655.142584587913, 1248.341206209734, 6236.589847909287, 0.0, 0.03200000151991844, 0.9600000455975533, 0.0, 0.0, 0.0, 0.0, 0.0, 1.667047023847329E9, 0.0, 2022-10-29 14:37:03.847
66.0, -676.9817303791642, -653.996305251494, 1404.6690243575722, 6195.183545549866, 0.0, 0.03200000151991844, 0.9600000455975533, 0.0, 0.0, 0.0, 0.0, 0.0, 1.667047023847329E9, 0.0, 2022-10-29 14:37:03.847
67.0, -829.8875400675461, -780.3824843540788, 1254.7027760343626, 6406.837573692203, 0.0, 0.03200000151991844, 0.9600000455975533, 0.0, 0.0, 0.0, 0.0, 0.0, 1.6670470238594463E9, 0.0, 2022-10-29 14:37:03.859
67.0, -798.4275016402826, -736.5246775737032, 1429.4009827645496, 6166.8444536356255, 0.0, 0.03200000151991844, 0.9600000455975533, 0.0, 0.0, 0.0, 0.0, 0.0, 1.6670470238594463E9, 0.0, 2022-10-29 14:37:03.859
68.0, -702.7272016741335, -656.625454920344, 1205.4501635679044, 6222.395057627466, 0.0, 0.03200000151991844, 0.9600000455975533, 0.0, 0.0, 0.0, 0.0, 0.0, 1.667047023875225E9, 0.0, 2022-10-29 14:37:03.875
68.0, -671.9646545886062, -657.0031848158687, 1426.9532182435505, 6195.877296991646, 0.0, 0.03200000151991844, 0.9600000455975533, 0.0, 0.0, 0.0, 0.0, 0.0, 1.667047023875225E9, 0.0, 2022-10-29 14:37:03.875
69.0, -843.5475246557035, -791.9686944168061, 1255.3927875761874, 6406.394395547453, 0.0, 0.03200000151991844, 0.9600000455975533, 0.0, 0.0, 0.0, 0.0, 0.0, 1.6670470238759828E9, 0.0, 2022-10-29 14:37:03.875
69.0, -787.3779672211967, -721.6249161502346, 1448.2968272906728, 6649.9796895114705, 0.0, 0.03200000151991844, 0.9600000455975533, 0.0, 0.0, 0.0, 0.0, 0.0, 1.6670470238759828E9, 0.0, 2022-10-29 14:37:03.875
70.0, -693.7645314303227, -656.5319574214518, 1241.2428760938346, 6728.242705934215, 0.0, 0.03200000151991844, 0.9760000463575125, 0.0, 0.0, 0.0, 0.0, 0.0, 1.6670470238894496E9, 0.0, 2022-10-29 14:37:03.889
70.0, -658.1924730017781, -646.4772363905795, 1410.858558784239, 6682.890809121542, 0.0, 0.03200000151991844, 0.9760000463575125, 0.0, 0.0, 0.0, 0.0, 0.0, 1.6670470238894496E9, 0.0, 2022-10-29 14:37:03.889
71.0, -855.2141425674781, -791.547955671791, 1234.6606521718204, 6919.418911869172, 0.0, 0.03200000151991844, 0.9760000463575125, 0.0, 0.0, 0.0, 0.0, 0.0, 1.6670470239052036E9, 0.0, 2022-10-29 14:37:03.905
71.0, -775.0456471173093, -712.6884252061136, 1456.7882701400667, 7110.720404452644, 0.0, 0.03200000151991844, 0.9760000463575125, 0.0, 0.0, 0.0, 0.0, 0.0, 1.6670470239052036E9, 0.0, 2022-10-29 14:37:03.905
72.0, -692.012388301082, -631.4989370680414, 1698.0903551811352, 7212.900081092026, 0.0, 0.03200000151991844, 0.9760000463575125, 0.0, 0.0, 0.0, 0.0, 0.0, 1.6670470239059193E9, 0.0, 2022-10-29 14:37:03.905
72.0, -665.8835772606544, -646.4921959904023, 1908.9795737825334, 7188.824475127272, 0.0, 0.03200000151991844, 0.9760000463575125, 0.0, 0.0, 0.0, 0.0, 0.0, 1.6670470239059193E9, 0.0, 2022-10-29 14:37:03.905
73.0, -862.5349967307411, -803.3622996318154, 1715.2864151773974, 7428.310838739853, 0.0, 0.03200000151991844, 0.9760000463575125, 0.0, 0.0, 0.0, 0.0, 0.0, 1.6670470239194808E9, 0.0, 2022-10-29 14:37:03.919
73.0, -804.3122342205606, -747.5854316926561, 1902.808738855645, 7600.725836547092, 0.0, 0.03200000151991844, 0.9760000463575125, 0.0, 0.0, 0.0, 0.0, 0.0, 1.6670470239194808E9, 0.0, 2022-10-29 14:37:03.919
74.0, -677.8961359183304, -636.3383676107042, 1723.445006930735, 7686.6219887793995, 0.0, 0.03200000151991844, 0.9760000463575125, 0.0, 0.0, 0.0, 0.0, 0.0, 1.6670470239353137E9, 0.0, 2022-10-29 14:37:03.935
74.0, -664.7522575240582, -644.517528813798, 1923.9934021546505, 7704.764243464451, 0.0, 0.03200000151991844, 0.9760000463575125, 0.0, 0.0, 0.0, 0.0, 0.0, 1.6670470239353137E9, 0.0, 2022-10-29 14:37:03.935
75.0, -858.254681231454, -807.2966743852012, 1711.686761470046, 7905.321988438256, 0.0, 0.03200000151991844, 0.9760000463575125, 0.0, 0.0, 0.0, 0.0, 0.0, 1.667047023935918E9, 0.0, 2022-10-29 14:37:03.935
75.0, -806.3299102466553, -741.5866321637295, 1907.9492313447408, 8086.196639945265, 0.0, 0.03200000151991844, 0.9760000463575125, 0.0, 0.0, 0.0, 0.0, 0.0, 1.667047023935918E9, 0.0, 2022-10-29 14:37:03.935
76.0, -665.9041467104107, -632.9799374504946, 1714.8376271827146, 8152.4246583106, 0.0, 0.03200000151991844, 0.9760000463575125, 0.0, 0.0, 0.0, 0.0, 0.0, 1.6670470239494884E9, 0.0, 2022-10-29 14:37:03.949
76.0, -651.8776519265957, -631.6915419157594, 1925.4014744879678, 8200.871322336607, 0.0, 0.03200000151991844, 0.9760000463575125, 0.0, 0.0, 0.0, 0.0, 0.0, 1.6670470239494884E9, 0.0, 2022-10-29 14:37:03.949
77.0, -851.6705873594619, -801.6325959023088, 1732.381497874856, 8401.455246610101, 0.0, 0.03200000151991844, 0.9760000463575125, 0.0, 0.0, 0.0, 0.0, 0.0, 1.6670470239652193E9, 0.0, 2022-10-29 14:37:03.965
77.0, -790.6952584818937, -744.9955509733409, 1888.2867073277012, 8570.83344565332, 0.0, 0.03200000151991844, 0.9760000463575125, 0.0, 0.0, 0.0, 0.0, 0.0, 1.6670470239652193E9, 0.0, 2022-10-29 14:37:03.965
78.0, -660.5654395236634, -631.6092641167343, 1714.9816133310087, 8641.414707567077, 0.0, 0.03200000151991844, 0.9760000463575125, 0.0, 0.0, 0.0, 0.0, 0.0, 1.6670470239658926E9, 0.0, 2022-10-29 14:37:03.965
78.0, -646.0340582458302, -637.727740444243, 1945.8830365953036, 8683.133291572798, 0.0, 0.03200000151991844, 0.9760000463575125, 0.0, 0.0, 0.0, 0.0, 0.0, 1.6670470239658926E9, 0.0, 2022-10-29 14:37:03.965
79.0, -865.3754507470876, -822.0674092601985, 1722.7007668395527, 8888.418270090595, 0.0, 0.03200000151991844, 0.9760000463575125, 0.0, 0.0, 0.0, 0.0, 0.0, 1.66704702397953E9, 0.0, 2022-10-29 14:37:03.979
79.0, -784.1822227090597, -726.4493870930746, 1912.4632905912586, 9073.103879652452, 0.0, 0.03200000151991844, 0.9760000463575125, 0.0, 0.0, 0.0, 0.0, 0.0, 1.66704702397953E9, 0.0, 2022-10-29 14:37:03.979
80.0, -645.0916034569964, -601.9331579683349, 1722.4408437926322, 9151.871782569215, 0.0, 0.03200000151991844, 0.9920000471174717, 0.0, 0.0, 0.0, 0.0, 0.0, 1.6670470239951713E9, 0.0, 2022-10-29 14:37:03.995
80.0, -650.8473094888031, -633.4268554951996, 1927.5369573626667, 9165.701932605356, 0.0, 0.03200000151991844, 0.9920000471174717, 0.0, 0.0, 0.0, 0.0, 0.0, 1.6670470239951713E9, 0.0, 2022-10-29 14:37:03.995
81.0, -866.7180748311803, -823.5745889423415, 1722.0182350976393, 9387.244256230537, 0.0, 0.03200000151991844, 0.9920000471174717, 0.0, 0.0, 0.0, 0.0, 0.0, 1.6670470239959052E9, 0.0, 2022-10-29 14:37:03.995
81.0, -786.5682788807899, -730.3014840474352, 1901.2155414745212, 9556.749611872248, 0.0, 0.03200000151991844, 0.9920000471174717, 0.0, 0.0, 0.0, 0.0, 0.0, 1.6670470239959052E9, 0.0, 2022-10-29 14:37:03.995
82.0, -670.7211378533393, -629.585978240706, 1710.3927560853772, 9633.849519408774, 0.0, 0.03200000151991844, 0.9920000471174717, 0.0, 0.0, 0.0, 0.0, 0.0, 1.6670470240094657E9, 0.0, 2022-10-29 14:37:04.009
82.0, -650.6995834405534, -633.8120651906356, 1907.0927942548878, 9655.690535150003, 0.0, 0.03200000151991844, 0.9920000471174717, 0.0, 0.0, 0.0, 0.0, 0.0, 1.6670470240094657E9, 0.0, 2022-10-29 14:37:04.009
83.0, -875.7817223737948, -816.7268321234733, 1719.3834755788557, 9889.353874531575, 0.0, 0.03200000151991844, 0.9920000471174717, 0.0, 0.0, 0.0, 0.0, 0.0, 1.6670470240252275E9, 0.0, 2022-10-29 14:37:04.025
83.0, -804.3795524197631, -725.7911647008732, 1897.2306780717336, 10037.73627522355, 0.0, 0.03200000151991844, 0.9920000471174717, 0.0, 0.0, 0.0, 0.0, 0.0, 1.6670470240252275E9, 0.0, 2022-10-29 14:37:04.025
84.0, -685.4058550293557, -646.0153587460518, 1714.0933870915323, 10135.263516318053, 0.0, 0.03200000151991844, 0.9920000471174717, 0.0, 0.0, 0.0, 0.0, 0.0, 1.6670470240258353E9, 0.0, 2022-10-29 14:37:04.025
84.0, -648.7567054135725, -641.2525961524807, 1921.0856299391016, 10140.970603650436, 0.0, 0.03200000151991844, 0.9920000471174717, 0.0, 0.0, 0.0, 0.0, 0.0, 1.6670470240258353E9, 0.0, 2022-10-29 14:37:04.025
85.0, -868.4571283105761, -817.7945735608228, 1719.1123328320682, 10372.640576355625, 0.0, 0.03200000151991844, 0.9920000471174717, 0.0, 0.0, 0.0, 0.0, 0.0, 1.6670470240555997E9, 0.0, 2022-10-29 14:37:04.055
85.0, -801.5690176030621, -749.1449699741788, 1895.2391813453287, 10529.366693848744, 0.0, 0.03200000151991844, 0.9920000471174717, 0.0, 0.0, 0.0, 0.0, 0.0, 1.6670470240555997E9, 0.0, 2022-10-29 14:37:04.055
86.0, -656.0083714276552, -623.7311648600735, 1734.660966897849, 10622.219059998635, 0.0, 0.03200000151991844, 0.9920000471174717, 0.0, 0.0, 0.0, 0.0, 0.0, 1.6670470240715106E9, 0.0, 2022-10-29 14:37:04.071
86.0, -654.1589908995666, -654.7910339920782, 1913.301028181333, 10629.979352406692, 0.0, 0.03200000151991844, 0.9920000471174717, 0.0, 0.0, 0.0, 0.0, 0.0, 1.6670470240715106E9, 0.0, 2022-10-29 14:37:04.071
87.0, -873.9603910953738, -830.0651853154413, 1711.5633447715081, 10843.918459421955, 0.0, 0.03200000151991844, 0.9920000471174717, 0.0, 0.0, 0.0, 0.0, 0.0, 1.6670470240722375E9, 0.0, 2022-10-29 14:37:04.072
87.0, -800.5349352653138, -747.9444620884024, 1896.598634979222, 11030.047670366708, 0.0, 0.03200000151991844, 0.9920000471174717, 0.0, 0.0, 0.0, 0.0, 0.0, 1.6670470240722375E9, 0.0, 2022-10-29 14:37:04.072
88.0, -655.5838927826844, -621.8387754824944, 1722.6091392906383, 11106.650171209127, 0.0, 0.03200000151991844, 0.9920000471174717, 0.0, 0.0, 0.0, 0.0, 0.0, 1.6670470240729852E9, 0.0, 2022-10-29 14:37:04.072
88.0, -653.08002976235, -642.4157050387003, 1927.5369573626667, 11128.10597725492, 0.0, 0.03200000151991844, 0.9920000471174717, 0.0, 0.0, 0.0, 0.0, 0.0, 1.6670470240729852E9, 0.0, 2022-10-29 14:37:04.072
89.0, -870.4766742866486, -826.4861010578461, 1710.0767345391214, 11328.738520227838, 0.0, 0.03200000151991844, 0.9920000471174717, 0.0, 0.0, 0.0, 0.0, 0.0, 1.6670470240737543E9, 0.0, 2022-10-29 14:37:04.073
89.0, -799.9459010222927, -741.1939426683821, 1896.996934324503, 11512.96038219519, 0.0, 0.03200000151991844, 0.9920000471174717, 0.0, 0.0, 0.0, 0.0, 0.0, 1.6670470240737543E9, 0.0, 2022-10-29 14:37:04.073
90.0, -667.396366792731, -639.9024922684766, 1709.8803897914477, 11586.32412967598, 0.0, 0.03200000151991844, 0.9920000471174717, 0.0, 0.0, 0.0, 0.0, 0.0, 1.6670470240844235E9, 0.0, 2022-10-29 14:37:04.084
90.0, -652.513434919063, -649.1662244587205, 1929.2891004919074, 11605.977303943131, 0.0, 0.03200000151991844, 0.9920000471174717, 0.0, 0.0, 0.0, 0.0, 0.0, 1.6670470240844235E9, 0.0, 2022-10-29 14:37:04.084
91.0, -877.1355661577545, -820.9884481229819, 1720.935534060467, 11812.68344444409, 0.0, 0.03200000151991844, 0.9920000471174717, 0.0, 0.0, 0.0, 0.0, 0.0, 1.6670470240995097E9, 0.0, 2022-10-29 14:37:04.099
91.0, -780.1786598064937, -717.5727345482446, 1897.8814206640236, 11990.682112885173, 0.0, 0.03200000151991844, 0.9920000471174717, 0.0, 0.0, 0.0, 0.0, 0.0, 1.6670470240995097E9, 0.0, 2022-10-29 14:37:04.099
92.0, -656.6722036697902, -616.5692564449273, 1699.7770500611514, 12082.247953450307, 0.0, 0.03200000151991844, 0.9920000471174717, 0.0, 0.0, 0.0, 0.0, 0.0, 1.667047024115177E9, 0.0, 2022-10-29 14:37:04.115
92.0, -625.8124191854149, -620.7168054957874, 1931.8378423117101, 12082.208684500773, 0.0, 0.03200000151991844, 0.9920000471174717, 0.0, 0.0, 0.0, 0.0, 0.0, 1.667047024115177E9, 0.0, 2022-10-29 14:37:04.115
93.0, -859.5225073164329, -806.1934038982727, 1723.4244374809787, 12326.594317055307, 0.0, 0.03200000151991844, 0.9920000471174717, 0.0, 0.0, 0.0, 0.0, 0.0, 1.6670470241158772E9, 0.0, 2022-10-29 14:37:04.115
93.0, -783.5202604169026, -726.2867014450021, 1897.8795507140458, 12479.468337594066, 0.0, 0.03200000151991844, 0.9920000471174717, 0.0, 0.0, 0.0, 0.0, 0.0, 1.6670470241158772E9, 0.0, 2022-10-29 14:37:04.115
94.0, -645.4244545530528, -607.1334888567217, 1705.762759940233, 12567.604689899832, 0.0, 0.03200000151991844, 0.9920000471174717, 0.0, 0.0, 0.0, 0.0, 0.0, 1.6670470241295276E9, 0.0, 2022-10-29 14:37:04.129
94.0, -653.0650701625273, -638.6496257833205, 1908.0988273429684, 12588.118041156791, 0.0, 0.03200000151991844, 0.9920000471174717, 0.0, 0.0, 0.0, 0.0, 0.0, 1.6670470241295276E9, 0.0, 2022-10-29 14:37:04.129
95.0, -857.8096331367269, -813.2767744143493, 1705.1868153470568, 12762.466567241121, 0.0, 0.03200000151991844, 0.9920000471174717, 0.0, 0.0, 0.0, 0.0, 0.0, 1.667047024145167E9, 0.0, 2022-10-29 14:37:04.145
95.0, -801.774712100625, -730.5614070943557, 1886.1942333024926, 12989.308329103515, 0.0, 0.03200000151991844, 0.9920000471174717, 0.0, 0.0, 0.0, 0.0, 0.0, 1.667047024145167E9, 0.0, 2022-10-29 14:37:04.145
96.0, -635.9438081653789, -587.5775519884191, 1694.657127021812, 13015.452099743765, 0.0, 0.03200000151991844, 0.9920000471174717, 0.0, 0.0, 0.0, 0.0, 0.0, 1.667047024145914E9, 0.0, 2022-10-29 14:37:04.145
96.0, -672.8566207280383, -658.1158050526865, 1902.303852361627, 13080.616116571706, 0.0, 0.03200000151991844, 0.9920000471174717, 0.0, 0.0, 0.0, 0.0, 0.0, 1.667047024145914E9, 0.0, 2022-10-29 14:37:04.145
97.0, -844.7686019912362, -789.835081492085, 1698.767277073115, 13204.535831653513, 0.0, 0.03200000151991844, 0.9920000471174717, 0.0, 0.0, 0.0, 0.0, 0.0, 1.667047024159424E9, 0.0, 2022-10-29 14:37:04.159
97.0, -780.2889868551865, -715.590587571729, 1888.4998816251755, 13441.142472300213, 0.0, 0.03200000151991844, 0.9920000471174717, 0.0, 0.0, 0.0, 0.0, 0.0, 1.667047024159424E9, 0.0, 2022-10-29 14:37:04.159
98.0, -611.6381983533502, -565.2279098532163, 1695.3209592639469, 13465.2405176647, 0.0, 0.03200000151991844, 0.9920000471174717, 0.0, 0.0, 0.0, 0.0, 0.0, 1.66704702417519E9, 0.0, 2022-10-29 14:37:04.175
98.0, -634.6236234810203, -636.798375305254, 1914.1425056713633, 13518.668728431687, 0.0, 0.03200000151991844, 0.9920000471174717, 0.0, 0.0, 0.0, 0.0, 0.0, 1.66704702417519E9, 0.0, 2022-10-29 14:37:04.175
99.0, -822.7555508520454, -765.8959818757139, 1716.7730254097842, 13652.51039809594, 0.0, 0.03200000151991844, 0.9920000471174717, 0.0, 0.0, 0.0, 0.0, 0.0, 1.6670470241758964E9, 0.0, 2022-10-29 14:37:04.175
99.0, -748.9074863269925, -689.7964975773357, 1873.2392198559828, 13855.428019941784, 0.0, 0.03200000151991844, 0.9920000471174717, 0.0, 0.0, 0.0, 0.0, 0.0, 1.6670470241758964E9, 0.0, 2022-10-29 14:37:04.175
100.0, -591.3941198932007, -548.6526732495986, 1688.0038450006396, 13882.327250373084, 0.0, 0.03200000151991844, 0.9920000471174717, 0.0, 0.0, 0.0, 0.0, 0.0, 1.6670470241902416E9, 0.0, 2022-10-29 14:37:04.190
100.0, -604.6146662365645, -591.2239544452168, 1908.7888388847932, 13929.60332571296, 0.0, 0.03200000151991844, 0.9920000471174717, 0.0, 0.0, 0.0, 0.0, 0.0, 1.6670470241902416E9, 0.0, 2022-10-29 14:37:04.190
0.0, -3253.8158086990006, -3194.5514840511605, -1225.0154501860961, 399.44562461739406, 0.0, 0.03200000151991844, 0.9920000471174717, 0.0, 0.0, 0.0, 0.0, 0.0, 1.6670470241909373E9, 0.0, 2022-10-29 14:37:04.190
1.0, -3183.318694534246, -3130.5430963095278, -1056.072949487716, 572.5263246167451, 0.0, 0.03200000151991844, 0.9920000471174717, 0.0, 0.0, 0.0, 0.0, 0.0, 1.6670470242045176E9, 0.0, 2022-10-29 14:37:04.204
1.0, -3037.8141468581744, -2995.319533611648, -1255.6433608732186, 643.4217381267808, 0.0, 0.03200000151991844, 0.9920000471174717, 0.0, 0.0, 0.0, 0.0, 0.0, 1.6670470242045176E9, 0.0, 2022-10-29 14:37:04.204
2.0, -3035.033531241119, -3015.9338621674106, -1036.257089572493, 661.6537504107691, 0.0, 0.03200000151991844, 0.9920000471174717, 0.0, 0.0, 0.0, 0.0, 0.0, 1.6670470242202342E9, 0.0, 2022-10-29 14:37:04.220
2.0, -3249.2325613033026, -3189.409121612087, -1221.3110792799853, 444.9789065779187, 0.0, 0.03200000151991844, 0.9920000471174717, 0.0, 0.0, 0.0, 0.0, 0.0, 1.6670470242202342E9, 0.0, 2022-10-29 14:37:04.220
3.0, -3182.5613647932187, -3126.631160955876, -1074.2656928221695, 588.7911495240405, 0.0, 0.03200000151991844, 0.9920000471174717, 0.0, 0.0, 0.0, 0.0, 0.0, 1.6670470242208905E9, 0.0, 2022-10-29 14:37:04.220
3.0, -3042.6965862503275, -3009.007567449473, -1275.537758687511, 691.5280712568201, 0.0, 0.03200000151991844, 0.9920000471174717, 0.0, 0.0, 0.0, 0.0, 0.0, 1.6670470242208905E9, 0.0, 2022-10-29 14:37:04.220
4.0, -3037.6944700595923, -3020.174908717163, -1042.624269247055, 733.5234078592621, 0.0, 0.03200000151991844, 0.9920000471174717, 0.0, 0.0, 0.0, 0.0, 0.0, 1.6670470242344697E9, 0.0, 2022-10-29 14:37:04.234
4.0, -3248.2957163644023, -3201.275824171491, -1253.853818744421, 928.9761893935502, 0.0, 0.03200000151991844, 0.9920000471174717, 0.0, 0.0, 0.0, 0.0, 0.0, 1.6670470242344697E9, 0.0, 2022-10-29 14:37:04.234
5.0, -3180.2744159703143, -3135.666759248823, -1074.5779744684696, 1102.3261621897109, 0.0, 0.03200000151991844, 0.9920000471174717, 0.0, 0.0, 0.0, 0.0, 0.0, 1.667047024250272E9, 0.0, 2022-10-29 14:37:04.250
5.0, -3024.043835221324, -2973.5383562697098, -1282.4771430552937, 1177.8740112446249, 0.0, 0.03200000151991844, 0.9920000471174717, 0.0, 0.0, 0.0, 0.0, 0.0, 1.667047024250272E9, 0.0, 2022-10-29 14:37:04.250
6.0, -3045.634277665522, -3026.6823346400633, -1048.6585978255607, 1197.0634379172698, 0.0, 0.03200000151991844, 0.9920000471174717, 0.0, 0.0, 0.0, 0.0, 0.0, 1.6670470242509472E9, 0.0, 2022-10-29 14:37:04.250
6.0, -3230.0188252809457, -3187.0829038396478, -1237.0448383935727, 1402.681267531123, 0.0, 0.03200000151991844, 0.9920000471174717, 0.0, 0.0, 0.0, 0.0, 0.0, 1.6670470242509472E9, 0.0, 2022-10-29 14:37:04.250
7.0, -3164.69399275491, -3104.5059128180146, -1077.0369586893357, 1597.0569578781724, 0.0, 0.03200000151991844, 0.9920000471174717, 0.0, 0.0, 0.0, 0.0, 0.0, 1.6670470242645316E9, 0.0, 2022-10-29 14:37:04.264
7.0, -3027.8884523757733, -2988.707390489988, -1296.5148575389758, 1668.1019673864357, 0.0, 0.03200000151991844, 0.9920000471174717, 0.0, 0.0, 0.0, 0.0, 0.0, 1.6670470242645316E9, 0.0, 2022-10-29 14:37:04.264
8.0, -3035.2448355886154, -3023.0359321832657, -1530.5260076164268, 1713.6015902473591, 0.0, 0.03200000151991844, 0.9920000471174717, 0.0, 0.0, 0.0, 0.0, 0.0, 1.6670470242802665E9, 0.0, 2022-10-29 14:37:04.280
8.0, -3247.177486277651, -3194.547744151205, -1739.0329099460505, 1886.046507254243, 0.0, 0.03200000151991844, 0.9920000471174717, 0.0, 0.0, 0.0, 0.0, 0.0, 1.6670470242802665E9, 0.0, 2022-10-29 14:37:04.280
9.0, -3168.3665745113976, -3100.4294218663126, -1573.2768040099181, 2056.2886231872253, 0.0, 0.03200000151991844, 0.9920000471174717, 0.0, 0.0, 0.0, 0.0, 0.0, 1.667047024281E9, 0.0, 2022-10-29 14:37:04.281
9.0, -3018.8790333825164, -2976.2647433374077, -1775.0612361691892, 2136.8030593832955, 0.0, 0.03200000151991844, 0.9920000471174717, 0.0, 0.0, 0.0, 0.0, 0.0, 1.667047024281E9, 0.0, 2022-10-29 14:37:04.281
10.0, -3030.229629748035, -3005.028313896619, -2019.8058991194703, 2212.913763381541, 0.0, 0.03200000151991844, 1.008000047877431, 0.0, 0.0, 0.0, 0.0, 0.0, 1.6670470242944803E9, 0.0, 2022-10-29 14:37:04.294
10.0, -3230.736886072438, -3172.766566809267, -2214.935179307591, 2419.9714544783346, 0.0, 0.03200000151991844, 1.008000047877431, 0.0, 0.0, 0.0, 0.0, 0.0, 1.6670470242944803E9, 0.0, 2022-10-29 14:37:04.294
11.0, -3137.848990872968, -3071.0263284146786, -2077.8753257314675, 2565.103882108815, 0.0, 0.03200000151991844, 1.008000047877431, 0.0, 0.0, 0.0, 0.0, 0.0, 1.6670470243101883E9, 0.0, 2022-10-29 14:37:04.310
11.0, -2993.432754084002, -2947.6956475758925, -2293.620804425329, 2652.540873122867, 0.0, 0.03200000151991844, 1.008000047877431, 0.0, 0.0, 0.0, 0.0, 0.0, 1.6670470243101883E9, 0.0, 2022-10-29 14:37:04.310
12.0, -2980.0644816923887, -2962.7599645974115, -2526.958772510756, 2688.4326929976232, 0.0, 0.03200000151991844, 1.008000047877431, 0.0, 0.0, 0.0, 0.0, 0.0, 1.6670470243109004E9, 0.0, 2022-10-29 14:37:04.310
12.0, -3189.405381712131, -3140.7866822881624, -2708.90490535507, 2909.5150089282542, 0.0, 0.03200000151991844, 1.008000047877431, 0.0, 0.0, 0.0, 0.0, 0.0, 1.6670470243109004E9, 0.0, 2022-10-29 14:37:04.310
13.0, -3103.959887424484, -3042.969598947093, -2578.0757251051255, 3080.815516548697, 0.0, 0.03200000151991844, 1.008000047877431, 0.0, 0.0, 0.0, 0.0, 0.0, 1.6670470243245263E9, 0.0, 2022-10-29 14:37:04.324
13.0, -2962.07556290552, -2922.398964275606, -2801.297263810411, 3117.9807723583654, 0.0, 0.03200000151991844, 1.008000047877431, 0.0, 0.0, 0.0, 0.0, 0.0, 1.6670470243245263E9, 0.0, 2022-10-29 14:37:04.324
14.0, -2975.647659844719, -2967.2553243441507, -3033.5693604084663, 3199.48067219276, 0.0, 0.03200000151991844, 1.008000047877431, 0.0, 0.0, 0.0, 0.0, 0.0, 1.6670470243401744E9, 0.0, 2022-10-29 14:37:04.340
14.0, -3167.4746083719656, -3122.2255588080734, -3231.634462061804, 3366.4503756645136, 0.0, 0.03200000151991844, 1.008000047877431, 0.0, 0.0, 0.0, 0.0, 0.0, 1.6670470243401744E9, 0.0, 2022-10-29 14:37:04.340
15.0, -3116.3838350772858, -3042.6704069506377, -3081.840249136556, 3565.44484245684, 0.0, 0.03200000151991844, 1.008000047877431, 0.0, 0.0, 0.0, 0.0, 0.0, 1.6670470243409648E9, 0.0, 2022-10-29 14:37:04.340
15.0, -2946.1174097945914, -2908.901665335521, -3306.453030625358, 3592.9013179815374, 0.0, 0.03200000151991844, 1.008000047877431, 0.0, 0.0, 0.0, 0.0, 0.0, 1.6670470243409648E9, 0.0, 2022-10-29 14:37:04.340
16.0, -2994.7548087183386, -2978.8602339066565, -3519.4048040523194, 3739.890605940018, 0.0, 0.03200000151991844, 1.008000047877431, 0.0, 0.0, 0.0, 0.0, 0.0, 1.6670470243544843E9, 0.0, 2022-10-29 14:37:04.354
16.0, -3176.891676460393, -3115.587236386724, -3728.6185474735685, 3844.9649651451036, 0.0, 0.03200000151991844, 1.008000047877431, 0.0, 0.0, 0.0, 0.0, 0.0, 1.6670470243544843E9, 0.0, 2022-10-29 14:37:04.354
17.0, -3135.378786952235, -3059.275562753901, -3581.692837814335, 4089.006526903715, 0.0, 0.03200000151991844, 1.008000047877431, 0.0, 0.0, 0.0, 0.0, 0.0, 1.667047024370215E9, 0.0, 2022-10-29 14:37:04.370
17.0, -2974.088121563196, -2926.935462921858, -3804.9854346187785, 4070.3294665249996, 0.0, 0.03200000151991844, 1.008000047877431, 0.0, 0.0, 0.0, 0.0, 0.0, 1.667047024370215E9, 0.0, 2022-10-29 14:37:04.370
18.0, -3027.699587428011, -3015.3354781745, -4032.186226876918, 4199.299916496966, 0.0, 0.03200000151991844, 1.008000047877431, 0.0, 0.0, 0.0, 0.0, 0.0, 1.6670470243710117E9, 0.0, 2022-10-29 14:37:04.371
18.0, -3195.2134463433176, -3139.39169960469, -4207.677292397711, 4324.39396016486, 0.0, 0.03200000151991844, 1.008000047877431, 0.0, 0.0, 0.0, 0.0, 0.0, 1.6670470243710117E9, 0.0, 2022-10-29 14:37:04.371
19.0, -3149.919517979957, -3083.023927472532, -4059.8278274494223, 4568.229827425908, 0.0, 0.03200000151991844, 1.008000047877431, 0.0, 0.0, 0.0, 0.0, 0.0, 1.6670470243845165E9, 0.0, 2022-10-29 14:37:04.384
19.0, -3017.9234889438376, -2979.507236598991, -4304.153621604666, 4592.365271789953, 0.0, 0.03200000151991844, 1.008000047877431, 0.0, 0.0, 0.0, 0.0, 0.0, 1.6670470243845165E9, 0.0, 2022-10-29 14:37:04.384
20.0, -3043.597902139649, -3023.985866772011, -4506.7421322544105, 4649.56704161223, 0.0, 0.03200000151991844, 0.9920000471174717, 0.0, 0.0, 0.0, 0.0, 0.0, 1.6670470244002707E9, 0.0, 2022-10-29 14:37:04.400
20.0, -3197.6256818147376, -3145.8841659277678, -4660.994305926841, 4773.449357694481, 0.0, 0.03200000151991844, 0.9920000471174717, 0.0, 0.0, 0.0, 0.0, 0.0, 1.6670470244002707E9, 0.0, 2022-10-29 14:37:04.400
21.0, -3166.2367014866322, -3114.5400643991306, -4540.4274111553095, 5000.43323575519, 0.0, 0.03200000151991844, 0.9920000471174717, 0.0, 0.0, 0.0, 0.0, 0.0, 1.667047024400988E9, 0.0, 2022-10-29 14:37:04.400
21.0, -3029.2366863097996, -2989.4030118817464, -4773.499846343882, 5044.723000980448, 0.0, 0.03200000151991844, 0.9920000471174717, 0.0, 0.0, 0.0, 0.0, 0.0, 1.667047024400988E9, 0.0, 2022-10-29 14:37:04.400
22.0, -3044.4431195296347, -3026.394362343475, -4988.740438543726, 5108.492035124917, 0.0, 0.03200000151991844, 0.9920000471174717, 0.0, 0.0, 0.0, 0.0, 0.0, 1.667047024414508E9, 0.0, 2022-10-29 14:37:04.414
22.0, -3214.7544236117974, -3158.5287676779553, -5162.5971677838825, 5279.336274950765, 0.0, 0.03200000151991844, 0.9920000471174717, 0.0, 0.0, 0.0, 0.0, 0.0, 1.667047024414508E9, 0.0, 2022-10-29 14:37:04.414
23.0, -3147.137032412924, -3085.013554248959, -5003.677598966751, 5482.339914495591, 0.0, 0.03200000151991844, 0.9920000471174717, 0.0, 0.0, 0.0, 0.0, 0.0, 1.667047024430196E9, 0.0, 2022-10-29 14:37:04.430
23.0, -3051.859341141768, -3019.606443923898, -4765.775082985405, 5563.54997208342, 0.0, 0.03200000151991844, 0.9920000471174717, 0.0, 0.0, 0.0, 0.0, 0.0, 1.667047024430196E9, 0.0, 2022-10-29 14:37:04.430
24.0, -3033.535701308865, -3016.6238737092353, -4988.861985292286, 5589.590895474888, 0.0, 0.03200000151991844, 0.9920000471174717, 0.0, 0.0, 0.0, 0.0, 0.0, 1.6670470244308834E9, 0.0, 2022-10-29 14:37:04.430
24.0, -3211.6521765985526, -3156.2717380546965, -5121.232004323974, 5807.980483437423, 0.0, 0.03200000151991844, 0.9920000471174717, 0.0, 0.0, 0.0, 0.0, 0.0, 1.6670470244308834E9, 0.0, 2022-10-29 14:37:04.430
25.0, -3158.3324229302816, -3100.2854357180186, -4999.632897164673, 5956.407762928866, 0.0, 0.03200000151991844, 0.9920000471174717, 0.0, 0.0, 0.0, 0.0, 0.0, 1.667047024444522E9, 0.0, 2022-10-29 14:37:04.444
25.0, -3067.9016420016997, -3030.7569556417875, -5244.639353111852, 6080.645369506907, 0.0, 0.03200000151991844, 0.9920000471174717, 0.0, 0.0, 0.0, 0.0, 0.0, 1.667047024444522E9, 0.0, 2022-10-29 14:37:04.444
26.0, -3061.085674332455, -3040.0580868315883, -5462.284700983204, 6091.764092075173, 0.0, 0.03200000151991844, 0.9920000471174717, 0.0, 0.0, 0.0, 0.0, 0.0, 1.6670470244601493E9, 0.0, 2022-10-29 14:37:04.460
26.0, -3219.9753239499405, -3170.157986590173, -5625.404177450575, 6295.792464207858, 0.0, 0.03200000151991844, 0.9920000471174717, 0.0, 0.0, 0.0, 0.0, 0.0, 1.6670470244601493E9, 0.0, 2022-10-29 14:37:04.460
27.0, -3173.028359806165, -3119.493561890442, -5492.615289623849, 6485.500759410206, 0.0, 0.03200000151991844, 0.9920000471174717, 0.0, 0.0, 0.0, 0.0, 0.0, 1.6670470244608428E9, 0.0, 2022-10-29 14:37:04.460
27.0, -3067.2153703598306, -3031.991122627165, -5730.706670552958, 6566.564960899763, 0.0, 0.03200000151991844, 0.9920000471174717, 0.0, 0.0, 0.0, 0.0, 0.0, 1.6670470244608428E9, 0.0, 2022-10-29 14:37:04.460
28.0, -3078.4462899267673, -3060.769652786199, -5952.910956470296, 6614.054210537113, 0.0, 0.03200000151991844, 0.9920000471174717, 0.0, 0.0, 0.0, 0.0, 0.0, 1.667047024474449E9, 0.0, 2022-10-29 14:37:04.474
28.0, -3226.5351084722206, -3172.873153958004, -6110.70855530072, 6781.3679848047905, 0.0, 0.03200000151991844, 0.9920000471174717, 0.0, 0.0, 0.0, 0.0, 0.0, 1.667047024474449E9, 0.0, 2022-10-29 14:37:04.474
29.0, -3185.583203957416, -3132.3438581381924, -5980.9190672384575, 7003.665768221021, 0.0, 0.03200000151991844, 0.9920000471174717, 0.0, 0.0, 0.0, 0.0, 0.0, 1.6670470244901817E9, 0.0, 2022-10-29 14:37:04.490
29.0, -3065.483796680346, -3029.3432734585367, -6219.044107267167, 7049.900281423237, 0.0, 0.03200000151991844, 0.9920000471174717, 0.0, 0.0, 0.0, 0.0, 0.0, 1.6670470244901817E9, 0.0, 2022-10-29 14:37:04.490
30.0, -3078.4350702269003, -3068.0736773996614, -6445.725053431466, 7112.266853084322, 0.0, 0.03200000151991844, 0.9920000471174717, 0.0, 0.0, 0.0, 0.0, 0.0, 1.667047024490935E9, 0.0, 2022-10-29 14:37:04.490
30.0, -3229.1530384412035, -3182.510876143817, -6601.903275581077, 7257.309523115866, 0.0, 0.03200000151991844, 0.9920000471174717, 0.0, 0.0, 0.0, 0.0, 0.0, 1.667047024490935E9, 0.0, 2022-10-29 14:37:04.490
31.0, -3163.102665323764, -3095.3151086769067, -6452.6326486496255, 7021.220858613029, 0.0, 0.03200000151991844, 0.9920000471174717, 0.0, 0.0, 0.0, 0.0, 0.0, 1.6670470245046496E9, 0.0, 2022-10-29 14:37:04.504
31.0, -3070.431684321724, -3030.846713240724, -6217.5238379351795, 7056.022497650702, 0.0, 0.03200000151991844, 0.9920000471174717, 0.0, 0.0, 0.0, 0.0, 0.0, 1.6670470245046496E9, 0.0, 2022-10-29 14:37:04.504
32.0, -3082.6761167766526, -3076.4921921999194, -6437.413125779945, 7119.327784200665, 0.0, 0.03200000151991844, 0.9920000471174717, 0.0, 0.0, 0.0, 0.0, 0.0, 1.6670470245201907E9, 0.0, 2022-10-29 14:37:04.520
32.0, -3229.6130461357534, -3173.6398334489204, -6633.133310161065, 7266.457318407483, 0.0, 0.03200000151991844, 0.9920000471174717, 0.0, 0.0, 0.0, 0.0, 0.0, 1.6670470245201907E9, 0.0, 2022-10-29 14:37:04.520
33.0, -3168.4619419602677, -3099.518756227102, -6459.149424322415, 7496.92304332694, 0.0, 0.03200000151991844, 0.9920000471174717, 0.0, 0.0, 0.0, 0.0, 0.0, 1.66704702452085E9, 0.0, 2022-10-29 14:37:04.520
33.0, -3077.690830135718, -3035.3046739879064, -6228.868824450765, 7565.095809669234, 0.0, 0.03200000151991844, 0.9920000471174717, 0.0, 0.0, 0.0, 0.0, 0.0, 1.66704702452085E9, 0.0, 2022-10-29 14:37:04.520
34.0, -3073.346936337184, -3065.556724729482, -6451.577996862121, 7602.109599530697, 0.0, 0.03200000151991844, 0.9920000471174717, 0.0, 0.0, 0.0, 0.0, 0.0, 1.6670470245345092E9, 0.0, 2022-10-29 14:37:04.534
34.0, -3213.5370861762203, -3157.9808723344468, -6587.055872756988, 7796.399272178765, 0.0, 0.03200000151991844, 0.9920000471174717, 0.0, 0.0, 0.0, 0.0, 0.0, 1.6670470245345092E9, 0.0, 2022-10-29 14:37:04.534
35.0, -3159.5852894154377, -3097.532869350631, -6463.620474719442, 7979.185012563132, 0.0, 0.03200000151991844, 0.9920000471174717, 0.0, 0.0, 0.0, 0.0, 0.0, 1.6670470245502307E9, 0.0, 2022-10-29 14:37:04.550
35.0, -3080.9389332472347, -3040.604112225119, -6226.548216528259, 8071.3791563208215, 0.0, 0.03200000151991844, 0.9920000471174717, 0.0, 0.0, 0.0, 0.0, 0.0, 1.6670470245502307E9, 0.0, 2022-10-29 14:37:04.550
36.0, -3062.49561661575, -3058.6154704117216, -6422.879874552134, 8089.6373479045, 0.0, 0.03200000151991844, 0.9920000471174717, 0.0, 0.0, 0.0, 0.0, 0.0, 1.667047024550942E9, 0.0, 2022-10-29 14:37:04.550
36.0, -3233.057493994944, -3178.9804105856456, -6604.107946604956, 8297.79082968831, 0.0, 0.03200000151991844, 0.9920000471174717, 0.0, 0.0, 0.0, 0.0, 0.0, 1.667047024550942E9, 0.0, 2022-10-29 14:37:04.550
37.0, -3166.734108180739, -3107.780195229221, -6469.886677095201, 8476.705773618538, 0.0, 0.03200000151991844, 0.9920000471174717, 0.0, 0.0, 0.0, 0.0, 0.0, 1.6670470245644753E9, 0.0, 2022-10-29 14:37:04.564
37.0, -3072.5821267962456, -3041.4792488147505, -6679.891409357078, 8581.563218626194, 0.0, 0.03200000151991844, 0.9920000471174717, 0.0, 0.0, 0.0, 0.0, 0.0, 1.6670470245644753E9, 0.0, 2022-10-29 14:37:04.564
38.0, -3079.658017512411, -3075.71055310918, -6470.883360433392, 8588.781225540675, 0.0, 0.03200000151991844, 0.9920000471174717, 0.0, 0.0, 0.0, 0.0, 0.0, 1.6670470245801475E9, 0.0, 2022-10-29 14:37:04.580
38.0, -3221.295508634299, -3180.1996179712005, -6585.477634975687, 8795.562164040748, 0.0, 0.03200000151991844, 0.9920000471174717, 0.0, 0.0, 0.0, 0.0, 0.0, 1.6670470245801475E9, 0.0, 2022-10-29 14:37:04.580
39.0, -3157.4778557904065, -3106.82652074052, -6449.326577088796, 8969.89947042521, 0.0, 0.03200000151991844, 0.9920000471174717, 0.0, 0.0, 0.0, 0.0, 0.0, 1.6670470245809472E9, 0.0, 2022-10-29 14:37:04.580
39.0, -3086.0644661365077, -3048.248467734549, -6216.701059944928, 9078.949343283195, 0.0, 0.03200000151991844, 0.9920000471174717, 0.0, 0.0, 0.0, 0.0, 0.0, 1.6670470245809472E9, 0.0, 2022-10-29 14:37:04.580
40.0, -3069.0722306878306, -3067.621149505023, -6457.365492043551, 9081.529874252621, 0.0, 0.03200000151991844, 0.9920000471174717, 0.0, 0.0, 0.0, 0.0, 0.0, 1.6670470245944746E9, 0.0, 2022-10-29 14:37:04.594
40.0, -3228.9005951941945, -3178.9093524864875, -6607.298081267159, 9296.50493355561, 0.0, 0.03200000151991844, 0.9920000471174717, 0.0, 0.0, 0.0, 0.0, 0.0, 1.6670470245944746E9, 0.0, 2022-10-29 14:37:04.594
41.0, -3155.493838863913, -3100.4574711159803, -6474.681228838395, 9452.812182253692, 0.0, 0.03200000151991844, 0.9920000471174717, 0.0, 0.0, 0.0, 0.0, 0.0, 1.6670470246103103E9, 0.0, 2022-10-29 14:37:04.610
41.0, -3087.77173046628, -3049.9426424144767, -6703.7818902740255, 9579.693898100406, 0.0, 0.03200000151991844, 0.9920000471174717, 0.0, 0.0, 0.0, 0.0, 0.0, 1.6670470246103103E9, 0.0, 2022-10-29 14:37:04.610
42.0, -3075.8994180569425, -3064.4422345426865, -6930.133725242224, 9581.515229378827, 0.0, 0.03200000151991844, 0.9920000471174717, 0.0, 0.0, 0.0, 0.0, 0.0, 1.6670470246108737E9, 0.0, 2022-10-29 14:37:04.610
42.0, -3223.404812209308, -3184.64261911856, -7084.621512611862, 9795.34213939542, 0.0, 0.03200000151991844, 0.9920000471174717, 0.0, 0.0, 0.0, 0.0, 0.0, 1.6670470246108737E9, 0.0, 2022-10-29 14:37:04.610
43.0, -3161.427190143615, -3111.265781987924, -6947.920689431485, 9973.322108336724, 0.0, 0.03200000151991844, 0.9920000471174717, 0.0, 0.0, 0.0, 0.0, 0.0, 1.66704702462457E9, 0.0, 2022-10-29 14:37:04.624
43.0, -3078.7604415230453, -3050.0286601134576, -6725.4303011675365, 10058.675975075457, 0.0, 0.03200000151991844, 0.9920000471174717, 0.0, 0.0, 0.0, 0.0, 0.0, 1.66704702462457E9, 0.0, 2022-10-29 14:37:04.624
44.0, -3064.9957397361286, -3052.339918286074, -6909.491347436793, 10097.664432113525, 0.0, 0.03200000151991844, 0.9920000471174717, 0.0, 0.0, 0.0, 0.0, 0.0, 1.6670470246401472E9, 0.0, 2022-10-29 14:37:04.640
44.0, -3232.7975709480233, -3190.7648353460245, -7093.195233260281, 10281.265470688231, 0.0, 0.03200000151991844, 0.9920000471174717, 0.0, 0.0, 0.0, 0.0, 0.0, 1.6670470246401472E9, 0.0, 2022-10-29 14:37:04.640
45.0, -3164.6304144556634, -3114.631691948045, -6964.411778286099, 10461.332303804811, 0.0, 0.03200000151991844, 0.9920000471174717, 0.0, 0.0, 0.0, 0.0, 0.0, 1.667047024640926E9, 0.0, 2022-10-29 14:37:04.640
45.0, -3083.4970248169266, -3054.4941006605513, -7206.542251167353, 10555.74794813618, 0.0, 0.03200000151991844, 0.9920000471174717, 0.0, 0.0, 0.0, 0.0, 0.0, 1.667047024640926E9, 0.0, 2022-10-29 14:37:04.640
46.0, -3078.569706625305, -3061.8467439734377, -7408.4089611256495, 10581.227886534296, 0.0, 0.03200000151991844, 0.9920000471174717, 0.0, 0.0, 0.0, 0.0, 0.0, 1.6670470246545107E9, 0.0, 2022-10-29 14:37:04.654
46.0, -3240.3203797088936, -3189.758802257944, -7575.085082450882, 10777.978413353208, 0.0, 0.03200000151991844, 0.9920000471174717, 0.0, 0.0, 0.0, 0.0, 0.0, 1.6670470246545107E9, 0.0, 2022-10-29 14:37:04.654
47.0, -3159.6021189652383, -3090.8795873294584, -7442.640265420079, 10950.71130265668, 0.0, 0.03200000151991844, 0.9920000471174717, 0.0, 0.0, 0.0, 0.0, 0.0, 1.667047024670283E9, 0.0, 2022-10-29 14:37:04.670
47.0, -3073.988329179585, -3025.0012496099807, -7207.090146510862, 11071.568039674778, 0.0, 0.03200000151991844, 0.9920000471174717, 0.0, 0.0, 0.0, 0.0, 0.0, 1.667047024670283E9, 0.0, 2022-10-29 14:37:04.670
48.0, -3080.5294142020866, -3061.311938279774, -7443.292877962347, 11078.935642587487, 0.0, 0.03200000151991844, 0.9920000471174717, 0.0, 0.0, 0.0, 0.0, 0.0, 1.6670470246708832E9, 0.0, 2022-10-29 14:37:04.670
48.0, -3239.677116916515, -3186.0002028024755, -7587.825051649939, 11302.531171288341, 0.0, 0.03200000151991844, 0.9920000471174717, 0.0, 0.0, 0.0, 0.0, 0.0, 1.6670470246708832E9, 0.0, 2022-10-29 14:37:04.670
49.0, -3168.854631455615, -3093.4862975985743, -7452.975478947628, 11466.004068301525, 0.0, 0.03200000151991844, 0.9920000471174717, 0.0, 0.0, 0.0, 0.0, 0.0, 1.6670470246844788E9, 0.0, 2022-10-29 14:37:04.684
49.0, -3086.4982945313677, -3044.8077597753145, -7663.515016903169, 11599.80085916631, 0.0, 0.03200000151991844, 0.9920000471174717, 0.0, 0.0, 0.0, 0.0, 0.0, 1.6670470246844788E9, 0.0, 2022-10-29 14:37:04.684
50.0, -3099.640302975662, -3086.3917073826306, -7447.262781765312, 11574.01237902185, 0.0, 0.03200000151991844, 0.9920000471174717, 0.0, 0.0, 0.0, 0.0, 0.0, 1.6670470247002513E9, 0.0, 2022-10-29 14:37:04.700
50.0, -3243.3347390731797, -3191.8755856328644, -7596.522188996896, 11776.346576474607, 0.0, 0.03200000151991844, 0.9920000471174717, 0.0, 0.0, 0.0, 0.0, 0.0, 1.6670470247002513E9, 0.0, 2022-10-29 14:37:04.700
51.0, -3170.313192438334, -3098.299548841547, -7455.7224354650825, 11965.179735087324, 0.0, 0.03200000151991844, 0.9920000471174717, 0.0, 0.0, 0.0, 0.0, 0.0, 1.6670470247009444E9, 0.0, 2022-10-29 14:37:04.700
51.0, -3079.912330709398, -3029.051561261993, -7692.220619013067, 12050.541081625968, 0.0, 0.03200000151991844, 0.9920000471174717, 0.0, 0.0, 0.0, 0.0, 0.0, 1.6670470247009444E9, 0.0, 2022-10-29 14:37:04.700
52.0, -3087.0667593246326, -3066.8432503142394, -7930.267121142708, 12095.150608297437, 0.0, 0.03200000151991844, 0.9920000471174717, 0.0, 0.0, 0.0, 0.0, 0.0, 1.6670470247144482E9, 0.0, 2022-10-29 14:37:04.714
52.0, -3238.663604028523, -3171.7212647716515, -8092.728375217877, 12246.360373355914, 0.0, 0.03200000151991844, 0.9920000471174717, 0.0, 0.0, 0.0, 0.0, 0.0, 1.6670470247144482E9, 0.0, 2022-10-29 14:37:04.714
53.0, -3188.7882982194424, -3118.7605414991267, -7936.748367765918, 12450.519641987048, 0.0, 0.03200000151991844, 0.9920000471174717, 0.0, 0.0, 0.0, 0.0, 0.0, 1.6670470247302086E9, 0.0, 2022-10-29 14:37:04.730
53.0, -3064.9153318870813, -3019.230583978351, -8161.645381651353, 12540.926113565918, 0.0, 0.03200000151991844, 0.9920000471174717, 0.0, 0.0, 0.0, 0.0, 0.0, 1.6670470247302086E9, 0.0, 2022-10-29 14:37:04.730
54.0, -3086.1729232352227, -3072.397001748439, -7936.821295815054, 12583.246821464505, 0.0, 0.03200000151991844, 0.9920000471174717, 0.0, 0.0, 0.0, 0.0, 0.0, 1.6670470247308936E9, 0.0, 2022-10-29 14:37:04.730
54.0, -3238.098879135214, -3194.4673363021575, -8096.679579521064, 12731.876055553555, 0.0, 0.03200000151991844, 0.9920000471174717, 0.0, 0.0, 0.0, 0.0, 0.0, 1.6670470247308936E9, 0.0, 2022-10-29 14:37:04.730
55.0, -3178.514793041162, -3131.4874210483395, -7933.504004554357, 12960.576547693927, 0.0, 0.03200000151991844, 0.9920000471174717, 0.0, 0.0, 0.0, 0.0, 0.0, 1.6670470247444644E9, 0.0, 2022-10-29 14:37:04.744
55.0, -3065.4052587812766, -3022.660072237719, -7689.9878987395205, 13020.450476034544, 0.0, 0.03200000151991844, 0.9920000471174717, 0.0, 0.0, 0.0, 0.0, 0.0, 1.6670470247444644E9, 0.0, 2022-10-29 14:37:04.744
56.0, -3078.1171787306666, -3053.0467593776993, -7917.910491689108, 13081.250029614195, 0.0, 0.03200000151991844, 0.9920000471174717, 0.0, 0.0, 0.0, 0.0, 0.0, 1.6670470247602923E9, 0.0, 2022-10-29 14:37:04.760
56.0, -3233.19961019326, -3181.2580096586607, -8082.503488739021, 13231.554738883395, 0.0, 0.03200000151991844, 0.9920000471174717, 0.0, 0.0, 0.0, 0.0, 0.0, 1.6670470247602923E9, 0.0, 2022-10-29 14:37:04.760
57.0, -3166.999641077593, -3101.2540698065422, -7938.132130749524, 13448.575523462147, 0.0, 0.03200000151991844, 0.9920000471174717, 0.0, 0.0, 0.0, 0.0, 0.0, 1.6670470247611415E9, 0.0, 2022-10-29 14:37:04.761
57.0, -3071.1721845129505, -3029.025381962303, -7725.731992566027, 13530.716816138942, 0.0, 0.03200000151991844, 0.9920000471174717, 0.0, 0.0, 0.0, 0.0, 0.0, 1.6670470247611415E9, 0.0, 2022-10-29 14:37:04.761
58.0, -3077.657171036117, -3066.1999875218607, -7935.377694432158, 13551.495700292755, 0.0, 0.03200000151991844, 0.9920000471174717, 0.0, 0.0, 0.0, 0.0, 0.0, 1.667047024774588E9, 0.0, 2022-10-29 14:37:04.774
58.0, -3245.114931452088, -3197.9791023605503, -8098.657986597624, 13734.113145179115, 0.0, 0.03200000151991844, 0.9920000471174717, 0.0, 0.0, 0.0, 0.0, 0.0, 1.667047024774588E9, 0.0, 2022-10-29 14:37:04.774
59.0, -3168.1216110643, -3107.675478030462, -7947.371553590056, 13919.59909333149, 0.0, 0.03200000151991844, 0.9920000471174717, 0.0, 0.0, 0.0, 0.0, 0.0, 1.6670470247902536E9, 0.0, 2022-10-29 14:37:04.790
59.0, -3085.118271447718, -3044.9910148731433, -8162.339133093134, 14037.482609884813, 0.0, 0.03200000151991844, 0.9920000471174717, 0.0, 0.0, 0.0, 0.0, 0.0, 1.6670470247902536E9, 0.0, 2022-10-29 14:37:04.790
60.0, -3064.917201837059, -3065.6838813279755, -7924.578733310103, 14037.065611039754, 0.0, 0.03200000151991844, 0.9920000471174717, 0.0, 0.0, 0.0, 0.0, 0.0, 1.6670470247909408E9, 0.0, 2022-10-29 14:37:04.790
60.0, -3238.975885674823, -3186.3480134983547, -8074.653438732028, 14246.557977007702, 0.0, 0.03200000151991844, 0.9920000471174717, 0.0, 0.0, 0.0, 0.0, 0.0, 1.6670470247909408E9, 0.0, 2022-10-29 14:37:04.790
61.0, -3184.7099373177625, -3121.13537797099, -7954.123942960054, 14428.341424203943, 0.0, 0.03200000151991844, 0.9920000471174717, 0.0, 0.0, 0.0, 0.0, 0.0, 1.66704702480448E9, 0.0, 2022-10-29 14:37:04.804
61.0, -3086.3169093835168, -3042.967728997115, -8150.953007678036, 14512.745356353931, 0.0, 0.03200000151991844, 0.9920000471174717, 0.0, 0.0, 0.0, 0.0, 0.0, 1.66704702480448E9, 0.0, 2022-10-29 14:37:04.804
62.0, -3108.337440322619, -3088.919879752677, -7935.213138834108, 14574.12833432667, 0.0, 0.03200000151991844, 0.9920000471174717, 0.0, 0.0, 0.0, 0.0, 0.0, 1.6670470248202407E9, 0.0, 2022-10-29 14:37:04.820
62.0, -3245.3898140988313, -3202.250068109948, -8098.183019303251, 14698.205125206616, 0.0, 0.03200000151991844, 0.9920000471174717, 0.0, 0.0, 0.0, 0.0, 0.0, 1.6670470248202407E9, 0.0, 2022-10-29 14:37:04.820
63.0, -3199.998648336623, -3138.8064052616246, -7939.895493578631, 14937.594251420349, 0.0, 0.03200000151991844, 0.9920000471174717, 0.0, 0.0, 0.0, 0.0, 0.0, 1.6670470248209877E9, 0.0, 2022-10-29 14:37:04.820
63.0, -3079.790783960838, -3039.8262130343355, -8139.260210466571, 15001.133281717543, 0.0, 0.03200000151991844, 0.9920000471174717, 0.0, 0.0, 0.0, 0.0, 0.0, 1.6670470248209877E9, 0.0, 2022-10-29 14:37:04.820
64.0, -3117.608652312774, -3104.597540366929, -7921.11932585109, 15072.299837974366, 0.0, 0.03200000151991844, 0.9920000471174717, 0.0, 0.0, 0.0, 0.0, 0.0, 1.667047024834473E9, 0.0, 2022-10-29 14:37:04.834
64.0, -3242.75318463007, -3191.4754163376056, -8091.378271333873, 15188.201207551174, 0.0, 0.03200000151991844, 0.9920000471174717, 0.0, 0.0, 0.0, 0.0, 0.0, 1.667047024834473E9, 0.0, 2022-10-29 14:37:04.834
65.0, -3190.60401964793, -3127.2688138983212, -7904.506690247916, 14954.345263321884, 0.0, 0.03200000151991844, 0.9920000471174717, 0.0, 0.0, 0.0, 0.0, 0.0, 1.6670470248502474E9, 0.0, 2022-10-29 14:37:04.850
65.0, -3086.290730083827, -3043.8765246863477, -8123.906051198486, 15029.294728383888, 0.0, 0.03200000151991844, 0.9920000471174717, 0.0, 0.0, 0.0, 0.0, 0.0, 1.6670470248502474E9, 0.0, 2022-10-29 14:37:04.850
66.0, -3123.607451841701, -3103.714923977386, -7924.834916457068, 15075.538591335993, 0.0, 0.03200000151991844, 0.9920000471174717, 0.0, 0.0, 0.0, 0.0, 0.0, 1.6670470248509114E9, 0.0, 2022-10-29 14:37:04.850
66.0, -3249.5261434498243, -3193.3790254150517, -8080.089383317623, 15199.963192911819, 0.0, 0.03200000151991844, 0.9920000471174717, 0.0, 0.0, 0.0, 0.0, 0.0, 1.6670470248509114E9, 0.0, 2022-10-29 14:37:04.850
67.0, -3201.277694121469, -3142.9090755130164, -7915.058817972895, 15440.216236015316, 0.0, 0.03200000151991844, 0.9920000471174717, 0.0, 0.0, 0.0, 0.0, 0.0, 1.6670470248645127E9, 0.0, 2022-10-29 14:37:04.864
67.0, -3082.442373029422, -3050.0510995131917, -8092.290806923062, 15541.53573566489, 0.0, 0.03200000151991844, 0.9920000471174717, 0.0, 0.0, 0.0, 0.0, 0.0, 1.6670470248645127E9, 0.0, 2022-10-29 14:37:04.864
68.0, -3108.2102837241255, -3083.8111764132045, -7935.1663900846615, 15537.692988460418, 0.0, 0.03200000151991844, 0.9920000471174717, 0.0, 0.0, 0.0, 0.0, 0.0, 1.6670470248965063E9, 0.0, 2022-10-29 14:37:04.896
68.0, -3247.9890445680358, -3197.706089663785, -8088.0348007734865, 15709.37496587634, 0.0, 0.03200000151991844, 0.9920000471174717, 0.0, 0.0, 0.0, 0.0, 0.0, 1.6670470248965063E9, 0.0, 2022-10-29 14:37:04.896
69.0, -3176.2091447184794, -3131.9960474423133, -7895.343935356475, 15921.298266815487, 0.0, 0.03200000151991844, 0.9920000471174717, 0.0, 0.0, 0.0, 0.0, 0.0, 1.6670470248972583E9, 0.0, 2022-10-29 14:37:04.897
69.0, -3089.9034734410234, -3049.7182484171353, -8116.990976180416, 16044.62333780434, 0.0, 0.03200000151991844, 0.9920000471174717, 0.0, 0.0, 0.0, 0.0, 0.0, 1.6670470248972583E9, 0.0, 2022-10-29 14:37:04.897
70.0, -3090.2288447371684, -3064.1056435466744, -7904.175709101837, 16013.22126782639, 0.0, 0.03200000151991844, 0.9920000471174717, 0.0, 0.0, 0.0, 0.0, 0.0, 1.667047024897972E9, 0.0, 2022-10-29 14:37:04.897
70.0, -3261.7032577055506, -3205.7580942683853, -8074.681487981696, 16235.750925039873, 0.0, 0.03200000151991844, 0.9920000471174717, 0.0, 0.0, 0.0, 0.0, 0.0, 1.667047024897972E9, 0.0, 2022-10-29 14:37:04.897
71.0, -3199.418963843491, -3133.907136319671, -7902.500233921688, 16416.094510753173, 0.0, 0.03200000151991844, 0.9920000471174717, 0.0, 0.0, 0.0, 0.0, 0.0, 1.6670470248988285E9, 0.0, 2022-10-29 14:37:04.898
71.0, -3105.876586151775, -3046.935762850102, -8100.309152428061, 16542.22824660875, 0.0, 0.03200000151991844, 0.9920000471174717, 0.0, 0.0, 0.0, 0.0, 0.0, 1.6670470248988285E9, 0.0, 2022-10-29 14:37:04.898
72.0, -3115.787321034353, -3106.613346443046, -7920.857532854192, 16514.629654885735, 0.0, 0.03200000151991844, 0.9920000471174717, 0.0, 0.0, 0.0, 0.0, 0.0, 1.667047024909474E9, 0.0, 2022-10-29 14:37:04.909
72.0, -3261.4639041083865, -3204.2097756867297, -8091.969175526872, 16712.902320986614, 0.0, 0.03200000151991844, 0.9920000471174717, 0.0, 0.0, 0.0, 0.0, 0.0, 1.667047024909474E9, 0.0, 2022-10-29 14:37:04.909
73.0, -3204.3668514848687, -3140.287405644078, -7899.308229309507, 16921.878580760676, 0.0, 0.03200000151991844, 0.9920000471174717, 0.0, 0.0, 0.0, 0.0, 0.0, 1.6670470249246967E9, 0.0, 2022-10-29 14:37:04.924
73.0, -3111.46025678562, -3074.050037528854, -8137.878317432944, 17010.583397859707, 0.0, 0.03200000151991844, 0.9920000471174717, 0.0, 0.0, 0.0, 0.0, 0.0, 1.6670470249246967E9, 0.0, 2022-10-29 14:37:04.924
74.0, -3125.653177117463, -3118.3528924039565, -7918.821157328319, 17013.08165103011, 0.0, 0.03200000151991844, 0.9920000471174717, 0.0, 0.0, 0.0, 0.0, 0.0, 1.667047024956554E9, 0.0, 2022-10-29 14:37:04.956
74.0, -3256.2542234701104, -3207.87113774335, -8068.518132854719, 17190.30990008032, 0.0, 0.03200000151991844, 0.9920000471174717, 0.0, 0.0, 0.0, 0.0, 0.0, 1.667047024956554E9, 0.0, 2022-10-29 14:37:04.956
75.0, -3204.6211646818556, -3137.983627271373, -7907.672515560407, 17411.74750650674, 0.0, 0.03200000151991844, 0.9920000471174717, 0.0, 0.0, 0.0, 0.0, 0.0, 1.6670470249572515E9, 0.0, 2022-10-29 14:37:04.957
75.0, -3105.1136465608142, -3058.503273413051, -8126.746505214833, 17505.213216249365, 0.0, 0.03200000151991844, 0.9920000471174717, 0.0, 0.0, 0.0, 0.0, 0.0, 1.6670470249572515E9, 0.0, 2022-10-29 14:37:04.957
76.0, -3131.083511853125, -3102.1105068963952, -7924.690930308774, 17503.356355921365, 0.0, 0.03200000151991844, 0.9920000471174717, 0.0, 0.0, 0.0, 0.0, 0.0, 1.667047024958053E9, 0.0, 2022-10-29 14:37:04.958
76.0, -3255.910152674187, -3197.055347071495, -8084.302380617708, 17689.044258671347, 0.0, 0.03200000151991844, 0.9920000471174717, 0.0, 0.0, 0.0, 0.0, 0.0, 1.667047024958053E9, 0.0, 2022-10-29 14:37:04.958
77.0, -3203.024227400776, -3143.1521690101363, -7907.996016906574, 17889.77777894307, 0.0, 0.03200000151991844, 0.9920000471174717, 0.0, 0.0, 0.0, 0.0, 0.0, 1.6670470249587834E9, 0.0, 2022-10-29 14:37:04.958
77.0, -3107.2902683350258, -3060.0777712943964, -8128.801580240484, 18002.84056445351, 0.0, 0.03200000151991844, 0.9920000471174717, 0.0, 0.0, 0.0, 0.0, 0.0, 1.6670470249587834E9, 0.0, 2022-10-29 14:37:04.958
78.0, -3105.3286908082664, -3098.411745840218, -7907.926828757394, 17981.809237052687, 0.0, 0.03200000151991844, 0.9920000471174717, 0.0, 0.0, 0.0, 0.0, 0.0, 1.6670470249694307E9, 0.0, 2022-10-29 14:37:04.969
78.0, -3254.0233731465414, -3208.884650631342, -8065.6384098888375, 18188.990344848018, 0.0, 0.03200000151991844, 0.9920000471174717, 0.0, 0.0, 0.0, 0.0, 0.0, 1.6670470249694307E9, 0.0, 2022-10-29 14:37:04.969
79.0, -3187.3185175368562, -3121.505628066603, -7898.592038467992, 18374.46133340057, 0.0, 0.03200000151991844, 0.9920000471174717, 0.0, 0.0, 0.0, 0.0, 0.0, 1.667047024984431E9, 0.0, 2022-10-29 14:37:04.984
79.0, -3109.9437273535877, -3073.253438838292, -8117.636108922772, 18511.919486321975, 0.0, 0.03200000151991844, 0.9920000471174717, 0.0, 0.0, 0.0, 0.0, 0.0, 1.667047024984431E9, 0.0, 2022-10-29 14:37:04.984
80.0, -3106.190737748053, -3084.768590801861, -7922.3460130365565, 18463.01842445135, 0.0, 0.03200000151991844, 1.008000047877431, 0.0, 0.0, 0.0, 0.0, 0.0, 1.6670470250002208E9, 0.0, 2022-10-29 14:37:05.000
80.0, -3269.47850971343, -3206.315339361783, -8075.644512220286, 18688.79805472633, 0.0, 0.03200000151991844, 1.008000047877431, 0.0, 0.0, 0.0, 0.0, 0.0, 1.6670470250002208E9, 0.0, 2022-10-29 14:37:05.000
81.0, -3199.770514439326, -3132.9572017309256, -7902.816255467944, 18880.997123299167, 0.0, 0.03200000151991844, 1.008000047877431, 0.0, 0.0, 0.0, 0.0, 0.0, 1.667047025001047E9, 0.0, 2022-10-29 14:37:05.001
81.0, -3110.8992717922665, -3070.841203366872, -8133.60361178359, 18983.629327833187, 0.0, 0.03200000151991844, 1.008000047877431, 0.0, 0.0, 0.0, 0.0, 0.0, 1.667047025001047E9, 0.0, 2022-10-29 14:37:05.001
82.0, -3119.8862513857894, -3107.4997027325444, -7909.104897243436, 18991.21758484328, 0.0, 0.03200000151991844, 1.008000047877431, 0.0, 0.0, 0.0, 0.0, 0.0, 1.6670470250146372E9, 0.0, 2022-10-29 14:37:05.014
82.0, -3253.785889499355, -3205.4551623719744, -8080.467113213148, 19143.773713885807, 0.0, 0.03200000151991844, 1.008000047877431, 0.0, 0.0, 0.0, 0.0, 0.0, 1.6670470250146372E9, 0.0, 2022-10-29 14:37:05.014
83.0, -3211.7755932970904, -3150.1457819272764, -7918.5593643314205, 19383.417153296527, 0.0, 0.03200000151991844, 1.008000047877431, 0.0, 0.0, 0.0, 0.0, 0.0, 1.6670470250302832E9, 0.0, 2022-10-29 14:37:05.030
83.0, -3093.9874441926368, -3048.8692911271937, -8135.89430050645, 19454.832412900403, 0.0, 0.03200000151991844, 1.008000047877431, 0.0, 0.0, 0.0, 0.0, 0.0, 1.6670470250302832E9, 0.0, 2022-10-29 14:37:05.030
84.0, -3117.806867010426, -3096.889606558252, -7916.863319701515, 19507.733297773637, 0.0, 0.03200000151991844, 1.008000047877431, 0.0, 0.0, 0.0, 0.0, 0.0, 1.6670470250309236E9, 0.0, 2022-10-29 14:37:05.030
84.0, -3240.374608258251, -3182.5781943430193, -8072.405758858658, 19636.821554594208, 0.0, 0.03200000151991844, 1.008000047877431, 0.0, 0.0, 0.0, 0.0, 0.0, 1.6670470250309236E9, 0.0, 2022-10-29 14:37:05.030
85.0, -3206.8987637548707, -3132.1269439407624, -7914.593200428411, 19395.990696947556, 0.0, 0.03200000151991844, 1.008000047877431, 0.0, 0.0, 0.0, 0.0, 0.0, 1.6670470250444624E9, 0.0, 2022-10-29 14:37:05.044
85.0, -3091.414393023122, -3048.371884433087, -8139.475254714023, 19460.10941173788, 0.0, 0.03200000151991844, 1.008000047877431, 0.0, 0.0, 0.0, 0.0, 0.0, 1.6670470250444624E9, 0.0, 2022-10-29 14:37:05.044
86.0, -3116.0154549316503, -3096.3548008645885, -7921.480226196814, 19480.375929597765, 0.0, 0.03200000151991844, 1.008000047877431, 0.0, 0.0, 0.0, 0.0, 0.0, 1.6670470250602176E9, 0.0, 2022-10-29 14:37:05.060
86.0, -3245.78998339409, -3192.2271362286992, -8081.719979698304, 19635.39665271109, 0.0, 0.03200000151991844, 1.008000047877431, 0.0, 0.0, 0.0, 0.0, 0.0, 1.6670470250602176E9, 0.0, 2022-10-29 14:37:05.060
87.0, -3189.2913147634827, -3123.880464538466, -7915.320610969793, 19390.620200611185, 0.0, 0.03200000151991844, 1.008000047877431, 0.0, 0.0, 0.0, 0.0, 0.0, 1.6670470250608811E9, 0.0, 2022-10-29 14:37:05.060
87.0, -3090.561695833225, -3047.0629194485955, -8135.733484808356, 19469.13379033096, 0.0, 0.03200000151991844, 1.008000047877431, 0.0, 0.0, 0.0, 0.0, 0.0, 1.6670470250608811E9, 0.0, 2022-10-29 14:37:05.060
88.0, -3093.370360699948, -3076.241618902888, -7899.083835312165, 19486.625302423723, 0.0, 0.03200000151991844, 1.008000047877431, 0.0, 0.0, 0.0, 0.0, 0.0, 1.6670470250744517E9, 0.0, 2022-10-29 14:37:05.074
88.0, -3246.612761384342, -3201.6778634167276, -8088.3003336703405, 19656.631804659497, 0.0, 0.03200000151991844, 1.008000047877431, 0.0, 0.0, 0.0, 0.0, 0.0, 1.6670470250744517E9, 0.0, 2022-10-29 14:37:05.074
89.0, -3179.9490446741693, -3118.951276396867, -7915.139225821942, 19857.52240072936, 0.0, 0.03200000151991844, 1.008000047877431, 0.0, 0.0, 0.0, 0.0, 0.0, 1.6670470250912943E9, 0.0, 2022-10-29 14:37:05.091
89.0, -3084.095408809837, -3043.356678592507, -8125.813400175888, 19981.36731781205, 0.0, 0.03200000151991844, 1.008000047877431, 0.0, 0.0, 0.0, 0.0, 0.0, 1.6670470250912943E9, 0.0, 2022-10-29 14:37:05.091
90.0, -3090.7973095304333, -3070.515832070727, -7909.456447839271, 19964.94354715664, 0.0, 0.03200000151991844, 1.008000047877431, 0.0, 0.0, 0.0, 0.0, 0.0, 1.667047025105206E9, 0.0, 2022-10-29 14:37:05.105
90.0, -3252.832215010654, -3197.044127371628, -8086.155501045752, 20158.956467207987, 0.0, 0.03200000151991844, 1.008000047877431, 0.0, 0.0, 0.0, 0.0, 0.0, 1.667047025105206E9, 0.0, 2022-10-29 14:37:05.105
91.0, -3183.486990032252, -3123.992661537137, -7921.517625196371, 20339.187855922617, 0.0, 0.03200000151991844, 1.008000047877431, 0.0, 0.0, 0.0, 0.0, 0.0, 1.6670470251058836E9, 0.0, 2022-10-29 14:37:05.105
91.0, -3103.8308608760126, -3056.1695758407004, -8152.450837610289, 20457.961468665395, 0.0, 0.03200000151991844, 1.008000047877431, 0.0, 0.0, 0.0, 0.0, 0.0, 1.6670470251058836E9, 0.0, 2022-10-29 14:37:05.105
92.0, -3123.5027346429415, -3096.4782175631262, -7941.928129204549, 20446.99047214538, 0.0, 0.03200000151991844, 1.008000047877431, 0.0, 0.0, 0.0, 0.0, 0.0, 1.6670470251202135E9, 0.0, 2022-10-29 14:37:05.120
92.0, -3262.593353895005, -3208.174069639761, -8085.36825210508, 20650.72713208152, 0.0, 0.03200000151991844, 1.008000047877431, 0.0, 0.0, 0.0, 0.0, 0.0, 1.6670470251202135E9, 0.0, 2022-10-29 14:37:05.120
93.0, -3184.1339927245863, -3115.188937041443, -7910.19507808052, 20839.58273009397, 0.0, 0.03200000151991844, 1.008000047877431, 0.0, 0.0, 0.0, 0.0, 0.0, 1.6670470251209304E9, 0.0, 2022-10-29 14:37:05.120
93.0, -3099.328021329362, -3044.3627116805874, -8141.195608693641, 20948.920575248543, 0.0, 0.03200000151991844, 1.008000047877431, 0.0, 0.0, 0.0, 0.0, 0.0, 1.6670470251209304E9, 0.0, 2022-10-29 14:37:05.120
94.0, -3098.2976788915694, -3078.137748180423, -7915.57492416678, 20930.522137416527, 0.0, 0.03200000151991844, 1.008000047877431, 0.0, 0.0, 0.0, 0.0, 0.0, 1.6670470251344461E9, 0.0, 2022-10-29 14:37:05.134
94.0, -3260.953407764435, -3199.598479041364, -8081.132815405261, 21145.201744623017, 0.0, 0.03200000151991844, 1.008000047877431, 0.0, 0.0, 0.0, 0.0, 0.0, 1.6670470251344461E9, 0.0, 2022-10-29 14:37:05.134
95.0, -3177.983727247454, -3107.7427962296642, -7926.016724843066, 21322.822683168575, 0.0, 0.03200000151991844, 1.008000047877431, 0.0, 0.0, 0.0, 0.0, 0.0, 1.66704702514996E9, 0.0, 2022-10-29 14:37:05.149
95.0, -3105.3025115085766, -3056.2742930394597, -8144.3576941061765, 21451.043283199426, 0.0, 0.03200000151991844, 1.008000047877431, 0.0, 0.0, 0.0, 0.0, 0.0, 1.66704702514996E9, 0.0, 2022-10-29 14:37:05.149
96.0, -3093.250683901366, -3081.5709763397463, -7925.768021496013, 21439.253248589113, 0.0, 0.03200000151991844, 1.008000047877431, 0.0, 0.0, 0.0, 0.0, 0.0, 1.6670470251651905E9, 0.0, 2022-10-29 14:37:05.165
96.0, -3255.7231576764025, -3193.4687830139883, -8086.916570686735, 21634.044067831244, 0.0, 0.03200000151991844, 1.008000047877431, 0.0, 0.0, 0.0, 0.0, 0.0, 1.6670470251651905E9, 0.0, 2022-10-29 14:37:05.165
97.0, -3189.650345159229, -3114.33249995159, -7926.078433192335, 21817.91437920276, 0.0, 0.03200000151991844, 1.008000047877431, 0.0, 0.0, 0.0, 0.0, 0.0, 1.6670470251659224E9, 0.0, 2022-10-29 14:37:05.165
97.0, -3108.6815111185424, -3058.7949856095947, -8152.445227760356, 21929.095995035488, 0.0, 0.03200000151991844, 1.008000047877431, 0.0, 0.0, 0.0, 0.0, 0.0, 1.6670470251659224E9, 0.0, 2022-10-29 14:37:05.165
98.0, -3109.6725846068002, -3083.3885677182116, -7920.530291608069, 21925.574879227206, 0.0, 0.03200000151991844, 1.008000047877431, 0.0, 0.0, 0.0, 0.0, 0.0, 1.6670470251804218E9, 0.0, 2022-10-29 14:37:05.180
98.0, -3267.3991253380664, -3195.6341850883327, -8089.977678800467, 22114.000388744753, 0.0, 0.03200000151991844, 1.008000047877431, 0.0, 0.0, 0.0, 0.0, 0.0, 1.6670470251804218E9, 0.0, 2022-10-29 14:37:05.180
99.0, -3191.5015956372954, -3125.5185407190584, -7908.450414751191, 22310.133832070976, 0.0, 0.03200000151991844, 1.008000047877431, 0.0, 0.0, 0.0, 0.0, 0.0, 1.6670470251812208E9, 0.0, 2022-10-29 14:37:05.181
99.0, -3112.2755549759604, -3071.2937312615104, -7665.181142333429, 22421.393985802773, 0.0, 0.03200000151991844, 1.008000047877431, 0.0, 0.0, 0.0, 0.0, 0.0, 1.6670470251812208E9, 0.0, 2022-10-29 14:37:05.181
100.0, -3094.972907830961, -3072.067890552338, -7428.987760631833, 22409.080365198664, 0.0, 0.03200000151991844, 0.9920000471174717, 0.0, 0.0, 0.0, 0.0, 0.0, 1.6670470251952322E9, 0.0, 2022-10-29 14:37:05.195
100.0, -3251.674715974368, -3201.6703836168163, -7587.402442954946, 22621.710507229436, 0.0, 0.03200000151991844, 0.9920000471174717, 0.0, 0.0, 0.0, 0.0, 0.0, 1.6670470251952322E9, 0.0, 2022-10-29 14:37:05.195
0.0, -1696.9422058947384, -1635.8752494682558, -1048.2285093306564, -1716.5804205620661, 0.0, 0.03200000151991844, 0.9920000471174717, 0.0, 0.0, 0.0, 0.0, 0.0, 1.6670470251959965E9, 0.0, 2022-10-29 14:37:05.195
1.0, -1648.2935872711241, -1607.0032218103297, -803.9868629244156, -1593.0608747755177, 0.0, 0.03200000151991844, 0.9920000471174717, 0.0, 0.0, 0.0, 0.0, 0.0, 1.6670470252094972E9, 0.0, 2022-10-29 14:37:05.209
1.0, -1649.6549108549953, -1639.4842529254965, -573.9605762497522, -1605.890601573512, 0.0, 0.03200000151991844, 0.9920000471174717, 0.0, 0.0, 0.0, 0.0, 0.0, 1.6670470252094972E9, 0.0, 2022-10-29 14:37:05.209
2.0, -1769.5785428341478, -1724.6305552166887, -707.1832924713381, -1411.3877546279691, 0.0, 0.03200000151991844, 0.9920000471174717, 0.0, 0.0, 0.0, 0.0, 0.0, 1.6670470252251444E9, 0.0, 2022-10-29 14:37:05.225
2.0, -1732.6694701714441, -1672.3355341362767, -586.5715189003386, -1208.1410215860233, 0.0, 0.03200000151991844, 0.9920000471174717, 0.0, 0.0, 0.0, 0.0, 0.0, 1.6670470252251444E9, 0.0, 2022-10-29 14:37:05.225
3.0, -1633.8089547427371, -1593.408685471397, -814.004184955731, -1132.9970817263238, 0.0, 0.03200000151991844, 0.9920000471174717, 0.0, 0.0, 0.0, 0.0, 0.0, 1.6670470252259867E9, 0.0, 2022-10-29 14:37:05.225
3.0, -1654.9954879917204, -1635.377842774149, -575.3574288832024, -1093.7655311911367, 0.0, 0.03200000151991844, 0.9920000471174717, 0.0, 0.0, 0.0, 0.0, 0.0, 1.6670470252259867E9, 0.0, 2022-10-29 14:37:05.225
4.0, -1770.094649028033, -1719.271278580185, -738.2412916533649, -951.4268088275567, 0.0, 0.03200000151991844, 0.9920000471174717, 0.0, 0.0, 0.0, 0.0, 0.0, 1.6670470252395692E9, 0.0, 2022-10-29 14:37:05.239
4.0, -1736.229854929261, -1679.3216672535054, -564.2648856146261, -1194.1986745512113, 0.0, 0.03200000151991844, 0.9920000471174717, 0.0, 0.0, 0.0, 0.0, 0.0, 1.6670470252395692E9, 0.0, 2022-10-29 14:37:05.239
5.0, -1623.1390201691538, -1575.1130948881619, -808.7178363683634, -1138.939782755915, 0.0, 0.03200000151991844, 0.9920000471174717, 0.0, 0.0, 0.0, 0.0, 0.0, 1.6670470252552445E9, 0.0, 2022-10-29 14:37:05.255
5.0, -1651.7829139297828, -1628.8105784519576, -571.0247547845356, -1089.1243153461255, 0.0, 0.03200000151991844, 0.9920000471174717, 0.0, 0.0, 0.0, 0.0, 0.0, 1.6670470252552445E9, 0.0, 2022-10-29 14:37:05.255
6.0, -1768.0788429519162, -1719.910801472608, -729.1477249111049, -947.0473859794438, 0.0, 0.03200000151991844, 0.9920000471174717, 0.0, 0.0, 0.0, 0.0, 0.0, 1.667047025255918E9, 0.0, 2022-10-29 14:37:05.255
6.0, -1731.6372577836737, -1665.7533102142625, -567.920637821313, -713.4738041968085, 0.0, 0.03200000151991844, 0.9920000471174717, 0.0, 0.0, 0.0, 0.0, 0.0, 1.667047025255918E9, 0.0, 2022-10-29 14:37:05.255
7.0, -1634.1567654386163, -1594.3660998600535, -810.2717647999525, -637.727740444243, 0.0, 0.03200000151991844, 0.9920000471174717, 0.0, 0.0, 0.0, 0.0, 0.0, 1.6670470252695887E9, 0.0, 2022-10-29 14:37:05.269
7.0, -1648.3160266708583, -1632.9880467024632, -567.9599067708477, -606.0994065189734, 0.0, 0.03200000151991844, 0.9920000471174717, 0.0, 0.0, 0.0, 0.0, 0.0, 1.6670470252695887E9, 0.0, 2022-10-29 14:37:05.269
8.0, -1767.5178579585627, -1717.9959726952948, -742.0784290079027, -454.99809855921194, 0.0, 0.03200000151991844, 0.9920000471174717, 0.0, 0.0, 0.0, 0.0, 0.0, 1.6670470252852752E9, 0.0, 2022-10-29 14:37:05.285
8.0, -1718.0315017448738, -1648.5909093176015, -565.4392142007127, -225.89369722362608, 0.0, 0.03200000151991844, 0.9920000471174717, 0.0, 0.0, 0.0, 0.0, 0.0, 1.6670470252852752E9, 0.0, 2022-10-29 14:37:05.285
9.0, -1635.1403591269627, -1590.9328717007302, -796.0059164189734, -133.1236088727601, 0.0, 0.03200000151991844, 0.9920000471174717, 0.0, 0.0, 0.0, 0.0, 0.0, 1.667047025285954E9, 0.0, 2022-10-29 14:37:05.285
9.0, -1636.1314326152205, -1619.2813133648597, -563.8404069696553, -130.58795670280233, 0.0, 0.03200000151991844, 0.9920000471174717, 0.0, 0.0, 0.0, 0.0, 0.0, 1.667047025285954E9, 0.0, 2022-10-29 14:37:05.285
10.0, -1783.782682865858, -1735.9213131829165, -725.4414840550162, 56.71558282803744, 0.0, 0.03200000151991844, 0.9920000471174717, 0.0, 0.0, 0.0, 0.0, 0.0, 1.6670470252995791E9, 0.0, 2022-10-29 14:37:05.299
10.0, -1718.0315017448738, -1651.9530793777667, -580.2735273749568, 239.1647322163917, 0.0, 0.03200000151991844, 0.9920000471174717, 0.0, 0.0, 0.0, 0.0, 0.0, 1.6670470252995791E9, 0.0, 2022-10-29 14:37:05.299
11.0, -1637.1823445027694, -1593.7265769676305, -799.5120726274326, 374.7304957602173, 0.0, 0.03200000151991844, 0.9920000471174717, 0.0, 0.0, 0.0, 0.0, 0.0, 1.667047025315181E9, 0.0, 2022-10-29 14:37:05.315
11.0, -1646.1543644964695, -1634.4316480853595, -579.1796066379175, 344.1437239726074, 0.0, 0.03200000151991844, 0.9920000471174717, 0.0, 0.0, 0.0, 0.0, 0.0, 1.667047025315181E9, 0.0, 2022-10-29 14:37:05.315
12.0, -1795.8887390224263, -1745.588954568375, -716.1945814145729, 541.9152434794232, 0.0, 0.03200000151991844, 0.9920000471174717, 0.0, 0.0, 0.0, 0.0, 0.0, 1.6670470253159468E9, 0.0, 2022-10-29 14:37:05.315
12.0, -1733.1070384662598, -1668.0720481867902, -580.2267786255106, 738.8864243957214, 0.0, 0.03200000151991844, 0.9920000471174717, 0.0, 0.0, 0.0, 0.0, 0.0, 1.6670470253159468E9, 0.0, 2022-10-29 14:37:05.315
13.0, -1641.6702244495973, -1584.3319482789375, -797.7412299984135, 850.475689323619, 0.0, 0.03200000151991844, 0.9920000471174717, 0.0, 0.0, 0.0, 0.0, 0.0, 1.667047025329606E9, 0.0, 2022-10-29 14:37:05.329
13.0, -1660.3136257287115, -1635.5760574718006, -583.2991064391099, 852.0352276051417, 0.0, 0.03200000151991844, 0.9920000471174717, 0.0, 0.0, 0.0, 0.0, 0.0, 1.667047025329606E9, 0.0, 2022-10-29 14:37:05.329
14.0, -1777.5220903400332, -1717.2966114035808, -738.9724420947023, 1007.770271610003, 0.0, 0.03200000151991844, 0.9920000471174717, 0.0, 0.0, 0.0, 0.0, 0.0, 1.6670470253452332E9, 0.0, 2022-10-29 14:37:05.345
14.0, -1741.933202361688, -1670.4169654590078, -569.5138352024369, 771.9359203041531, 0.0, 0.03200000151991844, 0.9920000471174717, 0.0, 0.0, 0.0, 0.0, 0.0, 1.6670470253452332E9, 0.0, 2022-10-29 14:37:05.345
15.0, -1621.7290778858587, -1578.8716943436302, -781.5642927400768, 818.7762972991914, 0.0, 0.03200000151991844, 0.9920000471174717, 0.0, 0.0, 0.0, 0.0, 0.0, 1.667047025345919E9, 0.0, 2022-10-29 14:37:05.345
15.0, -1674.3494702624157, -1648.2655380214565, -595.5416689440608, 877.1486558075994, 0.0, 0.03200000151991844, 0.9920000471174717, 0.0, 0.0, 0.0, 0.0, 0.0, 1.667047025345919E9, 0.0, 2022-10-29 14:37:05.345
16.0, -1773.8270691838115, -1711.8438372681849, -748.9598449263722, 982.8999369046651, 0.0, 0.03200000151991844, 0.9920000471174717, 0.0, 0.0, 0.0, 0.0, 0.0, 1.6670470253595335E9, 0.0, 2022-10-29 14:37:05.359
16.0, -1736.9591354206204, -1664.8744337246753, -557.6340429931879, 778.6116417250596, 0.0, 0.03200000151991844, 0.9920000471174717, 0.0, 0.0, 0.0, 0.0, 0.0, 1.6670470253595335E9, 0.0, 2022-10-29 14:37:05.359
17.0, -1629.721244091168, -1575.7900167801417, -321.3396839927882, 820.6462472770363, 0.0, 0.03200000151991844, 0.9920000471174717, 0.0, 0.0, 0.0, 0.0, 0.0, 1.6670470253752255E9, 0.0, 2022-10-29 14:37:05.375
17.0, -1666.794872351922, -1643.2017134814523, -85.87932268250734, 872.7954122591764, 0.0, 0.03200000151991844, 0.9920000471174717, 0.0, 0.0, 0.0, 0.0, 0.0, 1.6670470253752255E9, 0.0, 2022-10-29 14:37:05.375
18.0, -1769.7430984321982, -1720.550324365031, -240.88321624603122, 999.9950196021236, 0.0, 0.03200000151991844, 0.9920000471174717, 0.0, 0.0, 0.0, 0.0, 0.0, 1.6670470253759196E9, 0.0, 2022-10-29 14:37:05.375
18.0, -1733.9634755561128, -1658.8419750961475, -73.32073863130063, 768.4727729451843, 0.0, 0.03200000151991844, 0.9920000471174717, 0.0, 0.0, 0.0, 0.0, 0.0, 1.6670470253759196E9, 0.0, 2022-10-29 14:37:05.375
19.0, -1630.289708884433, -1578.7968963445164, -309.91989947808906, 820.1525804828852, 0.0, 0.03200000151991844, 0.9920000471174717, 0.0, 0.0, 0.0, 0.0, 0.0, 1.667047025389486E9, 0.0, 2022-10-29 14:37:05.389
19.0, -1663.6795356888324, -1638.2089470406063, -78.44253162061796, 870.6823687842116, 0.0, 0.03200000151991844, 0.9920000471174717, 0.0, 0.0, 0.0, 0.0, 0.0, 1.667047025389486E9, 0.0, 2022-10-29 14:37:05.389
20.0, -1778.7936563249677, -1714.6749415346421, -255.25752172572538, 997.5192058314569, 0.0, 0.03200000151991844, 1.008000047877431, 0.0, 0.0, 0.0, 0.0, 0.0, 1.6670470254051716E9, 0.0, 2022-10-29 14:37:05.405
20.0, -1733.9148568566889, -1657.1216211165302, -69.97165822098032, 776.8314493461512, 0.0, 0.03200000151991844, 1.008000047877431, 0.0, 0.0, 0.0, 0.0, 0.0, 1.6670470254051716E9, 0.0, 2022-10-29 14:37:05.405
21.0, -1623.3559343665838, -1571.8893011263572, -308.003200750798, 822.6171745536849, 0.0, 0.03200000151991844, 1.008000047877431, 0.0, 0.0, 0.0, 0.0, 0.0, 1.6670470254059167E9, 0.0, 2022-10-29 14:37:05.405
21.0, -1655.5976118845865, -1639.8245838214643, -82.0384454280138, 863.8159124655649, 0.0, 0.03200000151991844, 1.008000047877431, 0.0, 0.0, 0.0, 0.0, 0.0, 1.6670470254059167E9, 0.0, 2022-10-29 14:37:05.405
22.0, -1773.542836787179, -1710.4937333841808, -245.21402039472014, 1010.4891788777895, 0.0, 0.03200000151991844, 1.008000047877431, 0.0, 0.0, 0.0, 0.0, 0.0, 1.6670470254195166E9, 0.0, 2022-10-29 14:37:05.419
22.0, -1723.540374379605, -1653.3405822613277, -73.0701653342694, 1252.3765582619235, 0.0, 0.03200000151991844, 1.008000047877431, 0.0, 0.0, 0.0, 0.0, 0.0, 1.6670470254195166E9, 0.0, 2022-10-29 14:37:05.419
23.0, -1632.9375580530614, -1574.6381275937892, -298.3860480147414, 1335.5837224260904, 0.0, 0.03200000151991844, 1.008000047877431, 0.0, 0.0, 0.0, 0.0, 0.0, 1.6670470254515865E9, 0.0, 2022-10-29 14:37:05.451
23.0, -1636.1725715147331, -1603.611132550519, -79.67669860599563, 1348.325561575126, 0.0, 0.03200000151991844, 1.008000047877431, 0.0, 0.0, 0.0, 0.0, 0.0, 1.6670470254515865E9, 0.0, 2022-10-29 14:37:05.451
24.0, -1783.49471056927, -1734.0551031050272, -242.99438977101818, 1516.039505138062, 0.0, 0.03200000151991844, 1.008000047877431, 0.0, 0.0, 0.0, 0.0, 0.0, 1.6670470254523008E9, 0.0, 2022-10-29 14:37:05.452
24.0, -1713.1771116023883, -1654.8851609430276, -64.43286638660356, 1716.761805709917, 0.0, 0.03200000151991844, 1.008000047877431, 0.0, 0.0, 0.0, 0.0, 0.0, 1.6670470254523008E9, 0.0, 2022-10-29 14:37:05.452
25.0, -1637.8368269950151, -1590.416765506845, 172.1008462109603, 1829.51791942399, 0.0, 0.03200000151991844, 1.008000047877431, 0.0, 0.0, 0.0, 0.0, 0.0, 1.6670470254530754E9, 0.0, 2022-10-29 14:37:05.453
25.0, -1632.0156727139838, -1599.3588663008995, 413.94147684564814, 1808.5165112228133, 0.0, 0.03200000151991844, 1.008000047877431, 0.0, 0.0, 0.0, 0.0, 0.0, 1.6670470254530754E9, 0.0, 2022-10-29 14:37:05.453
26.0, -1782.6887621288188, -1731.4633524357341, 253.2491954495199, 2016.5690157078207, 0.0, 0.03200000151991844, 1.008000047877431, 0.0, 0.0, 0.0, 0.0, 0.0, 1.667047025453794E9, 0.0, 2022-10-29 14:37:05.453
26.0, -1725.2251993096434, -1656.9982044179924, 404.9881563517265, 2207.7545713926665, 0.0, 0.03200000151991844, 1.008000047877431, 0.0, 0.0, 0.0, 0.0, 0.0, 1.667047025453794E9, 0.0, 2022-10-29 14:37:05.453
27.0, -1641.5150186014362, -1598.1209594155662, 180.42773346230388, 2322.2796577857807, 0.0, 0.03200000151991844, 1.008000047877431, 0.0, 0.0, 0.0, 0.0, 0.0, 1.6670470254645565E9, 0.0, 2022-10-29 14:37:05.464
27.0, -1649.103275611531, -1626.8733102749102, 398.3105649808422, 2319.323266870808, 0.0, 0.03200000151991844, 1.008000047877431, 0.0, 0.0, 0.0, 0.0, 0.0, 1.6670470254645565E9, 0.0, 2022-10-29 14:37:05.464
28.0, -1773.3651915392838, -1717.4836064013653, 245.24767949432135, 2466.4565409775823, 0.0, 0.03200000151991844, 1.008000047877431, 0.0, 0.0, 0.0, 0.0, 0.0, 1.6670470254795413E9, 0.0, 2022-10-29 14:37:05.479
28.0, -1727.9815055769868, -1670.2711093607359, 410.85044953227043, 2701.8028353392147, 0.0, 0.03200000151991844, 1.008000047877431, 0.0, 0.0, 0.0, 0.0, 0.0, 1.6670470254795413E9, 0.0, 2022-10-29 14:37:05.479
29.0, -1640.0302783190273, -1592.8626600778662, 185.2129354556091, 2804.9698455668986, 0.0, 0.03200000151991844, 1.008000047877431, 0.0, 0.0, 0.0, 0.0, 0.0, 1.6670470254952269E9, 0.0, 2022-10-29 14:37:05.495
29.0, -1667.978550687898, -1644.4396203667857, 376.69207328697667, 2801.5310075576417, 0.0, 0.03200000151991844, 1.008000047877431, 0.0, 0.0, 0.0, 0.0, 0.0, 1.6670470254952269E9, 0.0, 2022-10-29 14:37:05.495
30.0, -1779.0834985715337, -1711.903675667476, 242.08933398174122, 2940.9189488561824, 0.0, 0.03200000151991844, 0.9920000471174717, 0.0, 0.0, 0.0, 0.0, 0.0, 1.667047025495833E9, 0.0, 2022-10-29 14:37:05.495
30.0, -1727.0315709882416, -1661.0372963701375, 413.2944741533138, 2712.7663520593196, 0.0, 0.03200000151991844, 0.9920000471174717, 0.0, 0.0, 0.0, 0.0, 0.0, 1.667047025495833E9, 0.0, 2022-10-29 14:37:05.495
31.0, -1637.9508939436637, -1592.4512710827403, 177.59662919584662, 2794.8403265369125, 0.0, 0.03200000151991844, 0.9920000471174717, 0.0, 0.0, 0.0, 0.0, 0.0, 1.667047025509514E9, 0.0, 2022-10-29 14:37:05.509
31.0, -1669.5231293695979, -1648.4824522188865, 389.4170828862116, 2793.252739005722, 0.0, 0.03200000151991844, 0.9920000471174717, 0.0, 0.0, 0.0, 0.0, 0.0, 1.667047025509514E9, 0.0, 2022-10-29 14:37:05.509
32.0, -1756.8423135350458, -1695.9268230567686, 245.0756440963596, 2945.1057668565772, 0.0, 0.03200000151991844, 0.9920000471174717, 0.0, 0.0, 0.0, 0.0, 0.0, 1.667047025525271E9, 0.0, 2022-10-29 14:37:05.525
32.0, -1717.3153109033592, -1655.6555803338997, 417.28681735601276, 2734.5980180506594, 0.0, 0.03200000151991844, 0.9920000471174717, 0.0, 0.0, 0.0, 0.0, 0.0, 1.667047025525271E9, 0.0, 2022-10-29 14:37:05.525
33.0, -1639.5553110246547, -1599.7590355961584, 660.6682867724448, 2779.3814500700682, 0.0, 0.03200000151991844, 0.9920000471174717, 0.0, 0.0, 0.0, 0.0, 0.0, 1.6670470255259259E9, 0.0, 2022-10-29 14:37:05.525
33.0, -1653.445299460087, -1632.471940508578, 885.4587135091424, 2796.9515000618994, 0.0, 0.03200000151991844, 0.9920000471174717, 0.0, 0.0, 0.0, 0.0, 0.0, 1.6670470255259259E9, 0.0, 2022-10-29 14:37:05.525
34.0, -1755.0808206559159, -1683.4243375048973, 743.0470630964264, 2956.785474418197, 0.0, 0.03200000151991844, 0.9920000471174717, 0.0, 0.0, 0.0, 0.0, 0.0, 1.6670470255394957E9, 0.0, 2022-10-29 14:37:05.539
34.0, -1726.242452097591, -1660.910139771644, 898.2379516577348, 2721.470969206188, 0.0, 0.03200000151991844, 0.9920000471174717, 0.0, 0.0, 0.0, 0.0, 0.0, 1.6670470255394957E9, 0.0, 2022-10-29 14:37:05.539
35.0, -1646.7695780391805, -1594.0893472633325, 654.6937965932302, 2784.4938933094963, 0.0, 0.03200000151991844, 0.9920000471174717, 0.0, 0.0, 0.0, 0.0, 0.0, 1.6670470255552106E9, 0.0, 2022-10-29 14:37:05.555
35.0, -1648.3814749200828, -1623.9487085095607, 899.791880089324, 2795.089029883966, 0.0, 0.03200000151991844, 0.9920000471174717, 0.0, 0.0, 0.0, 0.0, 0.0, 1.6670470255552106E9, 0.0, 2022-10-29 14:37:05.555
36.0, -1763.6040526549332, -1705.9647145378403, 729.8433463028632, 2968.940149274189, 0.0, 0.03200000151991844, 0.9920000471174717, 0.0, 0.0, 0.0, 0.0, 0.0, 1.6670470255559113E9, 0.0, 2022-10-29 14:37:05.555
36.0, -1730.2778041497804, -1672.5075695342384, 898.295920107048, 3199.9406798873097, 0.0, 0.03200000151991844, 0.9920000471174717, 0.0, 0.0, 0.0, 0.0, 0.0, 1.6670470255559113E9, 0.0, 2022-10-29 14:37:05.555
37.0, -1651.0368038886227, -1596.927931329701, 663.9369593337178, 3287.5497062993236, 0.0, 0.03200000151991844, 0.9920000471174717, 0.0, 0.0, 0.0, 0.0, 0.0, 1.6670470255694778E9, 0.0, 2022-10-29 14:37:05.569
37.0, -1653.3443221612833, -1616.719481895212, 880.7314799651504, 3262.2735924487934, 0.0, 0.03200000151991844, 0.9920000471174717, 0.0, 0.0, 0.0, 0.0, 0.0, 1.6670470255694778E9, 0.0, 2022-10-29 14:37:05.569
38.0, -1764.4006513454951, -1698.249300929252, 725.5630308035761, 3445.646497126203, 0.0, 0.03200000151991844, 0.9920000471174717, 0.0, 0.0, 0.0, 0.0, 0.0, 1.6670470255852733E9, 0.0, 2022-10-29 14:37:05.585
38.0, -1723.493625630159, -1665.8879466126673, 896.9364664731547, 3661.941741113551, 0.0, 0.03200000151991844, 0.9920000471174717, 0.0, 0.0, 0.0, 0.0, 0.0, 1.6670470255852733E9, 0.0, 2022-10-29 14:37:05.585
39.0, -1658.5689623993821, -1613.1067385380156, 664.6494102752768, 3774.264026432764, 0.0, 0.03200000151991844, 0.9920000471174717, 0.0, 0.0, 0.0, 0.0, 0.0, 1.6670470255860553E9, 0.0, 2022-10-29 14:37:05.586
39.0, -1643.7047300254926, -1621.7085084361024, 877.6030536522157, 3748.075376993045, 0.0, 0.03200000151991844, 0.9920000471174717, 0.0, 0.0, 0.0, 0.0, 0.0, 1.6670470255860553E9, 0.0, 2022-10-29 14:37:05.586
40.0, -1771.2390584144741, -1710.890162779484, 738.179583304096, 3932.2860192605294, 0.0, 0.03200000151991844, 0.9920000471174717, 0.0, 0.0, 0.0, 0.0, 0.0, 1.6670470255994513E9, 0.0, 2022-10-29 14:37:05.599
40.0, -1713.023775704205, -1641.432740802411, 903.5355199449696, 4145.196653787978, 0.0, 0.03200000151991844, 0.9920000471174717, 0.0, 0.0, 0.0, 0.0, 0.0, 1.6670470255994513E9, 0.0, 2022-10-29 14:37:05.599
41.0, -1664.8389046750963, -1617.2617673887871, 1141.0790055305697, 4267.429673989769, 0.0, 0.03200000151991844, 0.9920000471174717, 0.0, 0.0, 0.0, 0.0, 0.0, 1.6670470256152496E9, 0.0, 2022-10-29 14:37:05.615
41.0, -1652.431786572095, -1624.307738905307, 1359.0179355484433, 4211.688335100189, 0.0, 0.03200000151991844, 0.9920000471174717, 0.0, 0.0, 0.0, 0.0, 0.0, 1.6670470256152496E9, 0.0, 2022-10-29 14:37:05.615
42.0, -1783.5003204192035, -1736.3214824781753, 1224.448855342809, 4425.444187017623, 0.0, 0.03200000151991844, 0.9920000471174717, 0.0, 0.0, 0.0, 0.0, 0.0, 1.6670470256160495E9, 0.0, 2022-10-29 14:37:05.616
42.0, -1727.1437679869123, -1668.146846185904, 1384.4716946468689, 4192.732652174775, 0.0, 0.03200000151991844, 0.9920000471174717, 0.0, 0.0, 0.0, 0.0, 0.0, 1.6670470256160495E9, 0.0, 2022-10-29 14:37:05.616
43.0, -1675.4882697989233, -1613.6378043317236, 1140.3254156894982, 4345.13170541916, 0.0, 0.03200000151991844, 0.9920000471174717, 0.0, 0.0, 0.0, 0.0, 0.0, 1.66704702562951E9, 0.0, 2022-10-29 14:37:05.629
43.0, -1672.4720404846594, -1647.0500705358572, 1357.6771814143285, 4284.008650493342, 0.0, 0.03200000151991844, 0.9920000471174717, 0.0, 0.0, 0.0, 0.0, 0.0, 1.66704702562951E9, 0.0, 2022-10-29 14:37:05.629
44.0, -1782.5597355803475, -1724.1294086226262, 1216.2940034894273, 4466.644794879481, 0.0, 0.03200000151991844, 0.9920000471174717, 0.0, 0.0, 0.0, 0.0, 0.0, 1.6670470256456037E9, 0.0, 2022-10-29 14:37:05.645
44.0, -1729.0829061139375, -1650.4384198957123, 1387.7123179584742, 4708.494775264058, 0.0, 0.03200000151991844, 0.9920000471174717, 0.0, 0.0, 0.0, 0.0, 0.0, 1.6670470256456037E9, 0.0, 2022-10-29 14:37:05.645
45.0, -1707.1820519734174, -1657.5049608619884, 1617.0616827411577, 4847.4900270672515, 0.0, 0.03200000151991844, 0.9920000471174717, 0.0, 0.0, 0.0, 0.0, 0.0, 1.667047025660322E9, 0.0, 2022-10-29 14:37:05.660
45.0, -1743.3581042448059, -1715.8324405709282, 1820.4150029318407, 4786.277214542497, 0.0, 0.03200000151991844, 0.9920000471174717, 0.0, 0.0, 0.0, 0.0, 0.0, 1.667047025660322E9, 0.0, 2022-10-29 14:37:05.660
46.0, -1777.36875444185, -1713.5828907475807, 1694.7543644206598, 4879.484871188179, 0.0, 0.03200000151991844, 0.9920000471174717, 0.0, 0.0, 0.0, 0.0, 0.0, 1.667047025661039E9, 0.0, 2022-10-29 14:37:05.661
46.0, -1720.2193432189524, -1655.4798050359823, 1890.1491775056347, 4709.3119434043765, 0.0, 0.03200000151991844, 0.9920000471174717, 0.0, 0.0, 0.0, 0.0, 0.0, 1.667047025661039E9, 0.0, 2022-10-29 14:37:05.661
47.0, -1691.4632524596527, -1646.5414441418834, 2116.644998622127, 4838.187025927473, 0.0, 0.03200000151991844, 0.9920000471174717, 0.0, 0.0, 0.0, 0.0, 0.0, 1.6670470256752095E9, 0.0, 2022-10-29 14:37:05.675
47.0, -1739.5396663900465, -1721.3132639559917, 2296.781019887887, 4796.806902867742, 0.0, 0.03200000151991844, 0.9920000471174717, 0.0, 0.0, 0.0, 0.0, 0.0, 1.6670470256752095E9, 0.0, 2022-10-29 14:37:05.675
48.0, -1753.8522635204718, -1683.246692257002, 2179.393040078692, 4877.912243256811, 0.0, 0.03200000151991844, 0.9920000471174717, 0.0, 0.0, 0.0, 0.0, 0.0, 1.6670470256759279E9, 0.0, 2022-10-29 14:37:05.675
48.0, -1709.792502142489, -1627.4623445179313, 2378.419296020642, 4711.228642131668, 0.0, 0.03200000151991844, 0.9920000471174717, 0.0, 0.0, 0.0, 0.0, 0.0, 1.6670470256759279E9, 0.0, 2022-10-29 14:37:05.675
49.0, -1676.8140643332154, -1626.3852533306926, 2618.943481870927, 4807.933105235919, 0.0, 0.03200000151991844, 0.9920000471174717, 0.0, 0.0, 0.0, 0.0, 0.0, 1.667047025689548E9, 0.0, 2022-10-29 14:37:05.689
49.0, -1722.044414397329, -1691.5380504587665, 2794.9095146860927, 4795.847618529107, 0.0, 0.03200000151991844, 0.9920000471174717, 0.0, 0.0, 0.0, 0.0, 0.0, 1.667047025689548E9, 0.0, 2022-10-29 14:37:05.689
50.0, -1768.2321788500994, -1704.4519250057638, 2678.052600670606, 4875.303663037717, 0.0, 0.03200000151991844, 0.9920000471174717, 0.0, 0.0, 0.0, 0.0, 0.0, 1.6670470257053103E9, 0.0, 2022-10-29 14:37:05.705
50.0, -1684.4584198426455, -1617.540389935486, 2879.07970308885, 4689.554051938467, 0.0, 0.03200000151991844, 0.9920000471174717, 0.0, 0.0, 0.0, 0.0, 0.0, 1.6670470257053103E9, 0.0, 2022-10-29 14:37:05.705
51.0, -1677.2927715275437, -1631.084437625017, 3107.767105579376, 4839.750304108951, 0.0, 0.03200000151991844, 0.9920000471174717, 0.0, 0.0, 0.0, 0.0, 0.0, 1.667047025705991E9, 0.0, 2022-10-29 14:37:05.705
51.0, -1727.448569833301, -1714.8432370326482, 3303.3115146625787, 4793.987018301152, 0.0, 0.03200000151991844, 0.9920000471174717, 0.0, 0.0, 0.0, 0.0, 0.0, 1.667047025705991E9, 0.0, 2022-10-29 14:37:05.705
52.0, -1773.726091885008, -1702.6081543276086, 3160.163103958592, 4855.936591117177, 0.0, 0.03200000151991844, 0.9920000471174717, 0.0, 0.0, 0.0, 0.0, 0.0, 1.6670470257195852E9, 0.0, 2022-10-29 14:37:05.719
52.0, -1669.98126711417, -1592.7747724289075, 3367.533076701686, 4673.8296425747685, 0.0, 0.03200000151991844, 0.9920000471174717, 0.0, 0.0, 0.0, 0.0, 0.0, 1.6670470257195852E9, 0.0, 2022-10-29 14:37:05.719
53.0, -1699.9434756091796, -1651.4369731838815, 3588.770598480478, 4861.174321005121, 0.0, 0.03200000151991844, 0.9920000471174717, 0.0, 0.0, 0.0, 0.0, 0.0, 1.6670470257352812E9, 0.0, 2022-10-29 14:37:05.735
53.0, -1742.3950800062157, -1716.0774040180258, 3760.151513949968, 4747.924540496897, 0.0, 0.03200000151991844, 0.9920000471174717, 0.0, 0.0, 0.0, 0.0, 0.0, 1.6670470257352812E9, 0.0, 2022-10-29 14:37:05.735
54.0, -1736.1961958296597, -1663.5486391903833, 3676.557270140387, 4846.951481473632, 0.0, 0.03200000151991844, 0.9920000471174717, 0.0, 0.0, 0.0, 0.0, 0.0, 1.6670470257360144E9, 0.0, 2022-10-29 14:37:05.736
54.0, -1647.560566879809, -1565.4585431525484, 3895.158162450418, 4660.7680419795215, 0.0, 0.03200000151991844, 0.9920000471174717, 0.0, 0.0, 0.0, 0.0, 0.0, 1.6670470257360144E9, 0.0, 2022-10-29 14:37:05.736
55.0, -1709.51387959579, -1647.6484545287676, 4089.9433718426153, 4869.302993558813, 0.0, 0.03200000151991844, 0.9920000471174717, 0.0, 0.0, 0.0, 0.0, 0.0, 1.6670470257495008E9, 0.0, 2022-10-29 14:37:05.749
55.0, -1737.7501242612489, -1694.5692393728532, 4242.336815237068, 4737.768842167221, 0.0, 0.03200000151991844, 0.9920000471174717, 0.0, 0.0, 0.0, 0.0, 0.0, 1.6670470257495008E9, 0.0, 2022-10-29 14:37:05.749
56.0, -1759.4303243043832, -1693.2771039381623, 4141.812044328079, 4876.337745375466, 0.0, 0.03200000151991844, 0.9920000471174717, 0.0, 0.0, 0.0, 0.0, 0.0, 1.6670470257652493E9, 0.0, 2022-10-29 14:37:05.765
56.0, -1653.0638296646066, -1573.9967347513884, 4357.413536873646, 5112.817229423672, 0.0, 0.03200000151991844, 0.9920000471174717, 0.0, 0.0, 0.0, 0.0, 0.0, 1.6670470257652493E9, 0.0, 2022-10-29 14:37:05.765
57.0, -1670.8377042040229, -1616.2557343007065, 4583.490489195101, 5337.396351812873, 0.0, 0.03200000151991844, 0.9920000471174717, 0.0, 0.0, 0.0, 0.0, 0.0, 1.6670470257659929E9, 0.0, 2022-10-29 14:37:05.765
57.0, -1711.4343182230368, -1681.655364825856, 4763.2712199650705, 5261.597929460928, 0.0, 0.03200000151991844, 0.9920000471174717, 0.0, 0.0, 0.0, 0.0, 0.0, 1.6670470257659929E9, 0.0, 2022-10-29 14:37:05.765
58.0, -1778.924552823417, -1691.0649531143717, 4619.442147469148, 5364.110457196366, 0.0, 0.03200000151991844, 0.9920000471174717, 0.0, 0.0, 0.0, 0.0, 0.0, 1.6670470257794547E9, 0.0, 2022-10-29 14:37:05.779
58.0, -1691.0705629643053, -1591.452717794571, 4823.797760847956, 5152.114228208084, 0.0, 0.03200000151991844, 0.9920000471174717, 0.0, 0.0, 0.0, 0.0, 0.0, 1.6670470257794547E9, 0.0, 2022-10-29 14:37:05.779
59.0, -1646.3376195942983, -1579.7393511333503, 4580.242386083584, 5275.338321898133, 0.0, 0.03200000151991844, 0.9920000471174717, 0.0, 0.0, 0.0, 0.0, 0.0, 1.6670470257953005E9, 0.0, 2022-10-29 14:37:05.795
59.0, -1709.781282442622, -1660.6595664746128, 4784.414744364563, 5299.079206816852, 0.0, 0.03200000151991844, 0.9920000471174717, 0.0, 0.0, 0.0, 0.0, 0.0, 1.6670470257953005E9, 0.0, 2022-10-29 14:37:05.795
60.0, -1766.8708552662283, -1696.199835753534, 4641.741300954949, 5346.4244703059085, 0.0, 0.03200000151991844, 0.9920000471174717, 0.0, 0.0, 0.0, 0.0, 0.0, 1.6670470257959638E9, 0.0, 2022-10-29 14:37:05.795
60.0, -1708.7528099548072, -1622.3442914285697, 4830.441693119239, 5177.119199311826, 0.0, 0.03200000151991844, 0.9920000471174717, 0.0, 0.0, 0.0, 0.0, 0.0, 1.6670470257959638E9, 0.0, 2022-10-29 14:37:05.795
61.0, -1662.2920328052714, -1586.9386585480534, 5053.620222975034, 5303.544647363946, 0.0, 0.03200000151991844, 0.9920000471174717, 0.0, 0.0, 0.0, 0.0, 0.0, 1.6670470258094747E9, 0.0, 2022-10-29 14:37:05.809
61.0, -1735.3808976393193, -1695.0703859669156, 5241.602554347832, 5329.308818158694, 0.0, 0.03200000151991844, 0.9920000471174717, 0.0, 0.0, 0.0, 0.0, 0.0, 1.6670470258094747E9, 0.0, 2022-10-29 14:37:05.809
62.0, -1752.075811041519, -1678.2801051158458, 5129.577591075096, 5351.701469143387, 0.0, 0.03200000151991844, 0.9920000471174717, 0.0, 0.0, 0.0, 0.0, 0.0, 1.6670470258252776E9, 0.0, 2022-10-29 14:37:05.825
62.0, -1672.9619673788548, -1577.0260537154973, 5331.382592684124, 5197.621330868918, 0.0, 0.03200000151991844, 0.9920000471174717, 0.0, 0.0, 0.0, 0.0, 0.0, 1.6670470258252776E9, 0.0, 2022-10-29 14:37:05.825
63.0, -1697.826692234259, -1625.8523175870068, 5561.592134456616, 5386.749941578135, 0.0, 0.03200000151991844, 0.9920000471174717, 0.0, 0.0, 0.0, 0.0, 0.0, 1.6670470258259852E9, 0.0, 2022-10-29 14:37:05.825
63.0, -1766.5997125194408, -1734.324375901837, 5695.72738626739, 5276.5332199339755, 0.0, 0.03200000151991844, 0.9920000471174717, 0.0, 0.0, 0.0, 0.0, 0.0, 1.6670470258259852E9, 0.0, 2022-10-29 14:37:05.825
64.0, -1699.8518480602652, -1628.9171656006947, 5633.46927170502, 5313.690995943733, 0.0, 0.03200000151991844, 0.9920000471174717, 0.0, 0.0, 0.0, 0.0, 0.0, 1.6670470258395517E9, 0.0, 2022-10-29 14:37:05.839
64.0, -1640.3201205655932, -1560.4021984124556, 5846.677228278946, 5222.022308129817, 0.0, 0.03200000151991844, 0.9920000471174717, 0.0, 0.0, 0.0, 0.0, 0.0, 1.6670470258395517E9, 0.0, 2022-10-29 14:37:05.839
65.0, -1752.4180118874647, -1687.9570962511934, 6034.917612748686, 5444.851157339755, 0.0, 0.03200000151991844, 0.9920000471174717, 0.0, 0.0, 0.0, 0.0, 0.0, 1.6670470258554692E9, 0.0, 2022-10-29 14:37:05.855
65.0, -1755.682944548782, -1718.0146721950732, 6169.18376105791, 5203.655659447424, 0.0, 0.03200000151991844, 0.9920000471174717, 0.0, 0.0, 0.0, 0.0, 0.0, 1.6670470258554692E9, 0.0, 2022-10-29 14:37:05.855
66.0, -1658.9149031452835, -1592.5615981314331, 6156.299805710558, 5309.384501144756, 0.0, 0.03200000151991844, 0.9920000471174717, 0.0, 0.0, 0.0, 0.0, 0.0, 1.6670470258559313E9, 0.0, 2022-10-29 14:37:05.855
66.0, -1635.185237926431, -1560.2077236147597, 6354.652879660483, 5239.066902177874, 0.0, 0.03200000151991844, 0.9920000471174717, 0.0, 0.0, 0.0, 0.0, 0.0, 1.6670470258559313E9, 0.0, 2022-10-29 14:37:05.855
67.0, -1788.7249606573023, -1724.7053532158025, 6497.416080669034, 5453.798867983744, 0.0, 0.03200000151991844, 0.9920000471174717, 0.0, 0.0, 0.0, 0.0, 0.0, 1.6670470258695269E9, 0.0, 2022-10-29 14:37:05.869
67.0, -1742.1426367592067, -1702.5370962284505, 6660.812309733126, 5652.0509646348655, 0.0, 0.03200000151991844, 0.9920000471174717, 0.0, 0.0, 0.0, 0.0, 0.0, 1.6670470258695269E9, 0.0, 2022-10-29 14:37:05.869
68.0, -1670.7124175555073, -1593.8462537662126, 6639.491140085738, 5804.797828575131, 0.0, 0.03200000151991844, 0.9920000471174717, 0.0, 0.0, 0.0, 0.0, 0.0, 1.6670470258851597E9, 0.0, 2022-10-29 14:37:05.885
68.0, -1638.695134034846, -1555.463660520967, 6857.359012004454, 5716.278136523906, 0.0, 0.03200000151991844, 0.9920000471174717, 0.0, 0.0, 0.0, 0.0, 0.0, 1.6670470258851597E9, 0.0, 2022-10-29 14:37:05.885
69.0, -1811.184929841198, -1730.9154570922256, 6990.271316529717, 5472.115028016735, 0.0, 0.03200000151991844, 0.9920000471174717, 0.0, 0.0, 0.0, 0.0, 0.0, 1.6670470258859E9, 0.0, 2022-10-29 14:37:05.885
69.0, -1748.8164882301353, -1692.063506402541, 7147.691185464617, 5633.4655318050645, 0.0, 0.03200000151991844, 0.9920000471174717, 0.0, 0.0, 0.0, 0.0, 0.0, 1.6670470258859E9, 0.0, 2022-10-29 14:37:05.885
70.0, -1665.7551801642403, -1587.449154892005, 7143.693232411984, 5813.386508823372, 0.0, 0.03200000151991844, 0.9920000471174717, 0.0, 0.0, 0.0, 0.0, 0.0, 1.6670470258995676E9, 0.0, 2022-10-29 14:37:05.899
70.0, -1643.4317173287272, -1549.350794043392, 7341.53394006798, 5726.3328575547785, 0.0, 0.03200000151991844, 0.9920000471174717, 0.0, 0.0, 0.0, 0.0, 0.0, 1.6670470258995676E9, 0.0, 2022-10-29 14:37:05.899
71.0, -1814.6761264498346, -1746.6473462558351, 7495.845952139702, 5968.597966834437, 0.0, 0.03200000151991844, 0.9920000471174717, 0.0, 0.0, 0.0, 0.0, 0.0, 1.667047025915156E9, 0.0, 2022-10-29 14:37:05.915
71.0, -1738.12224430684, -1688.3628753963858, 7645.973016161006, 6118.029409463983, 0.0, 0.03200000151991844, 0.9920000471174717, 0.0, 0.0, 0.0, 0.0, 0.0, 1.667047025915156E9, 0.0, 2022-10-29 14:37:05.915
72.0, -1655.8650147314183, -1569.2526716575958, 7622.774416735861, 6298.417873976752, 0.0, 0.03200000151991844, 0.9920000471174717, 0.0, 0.0, 0.0, 0.0, 0.0, 1.6670470259160466E9, 0.0, 2022-10-29 14:37:05.916
72.0, -1656.7569808708504, -1578.9857612922788, 7827.085151315201, 6226.753911025822, 0.0, 0.03200000151991844, 0.9920000471174717, 0.0, 0.0, 0.0, 0.0, 0.0, 1.6670470259160466E9, 0.0, 2022-10-29 14:37:05.916
73.0, -1800.6253223163076, -1726.736118891742, 7987.953208009247, 6441.953364326153, 0.0, 0.03200000151991844, 0.9920000471174717, 0.0, 0.0, 0.0, 0.0, 0.0, 1.6670470259296055E9, 0.0, 2022-10-29 14:37:05.929
73.0, -1768.658527445048, -1714.1756648905575, 8112.3123613358475, 6604.2575426031835, 0.0, 0.03200000151991844, 0.9920000471174717, 0.0, 0.0, 0.0, 0.0, 0.0, 1.6670470259296055E9, 0.0, 2022-10-29 14:37:05.929
74.0, -1637.6367423473857, -1559.5812903721817, 8116.211207039654, 6762.184167982079, 0.0, 0.03200000151991844, 0.9920000471174717, 0.0, 0.0, 0.0, 0.0, 0.0, 1.6670470259452612E9, 0.0, 2022-10-29 14:37:05.945
74.0, -1665.3886699685827, -1577.1793896136805, 8305.023796202615, 6748.709308441728, 0.0, 0.03200000151991844, 0.9920000471174717, 0.0, 0.0, 0.0, 0.0, 0.0, 1.6670470259452612E9, 0.0, 2022-10-29 14:37:05.945
75.0, -1799.8885620250367, -1737.3162958663888, 8450.876154574566, 6895.554610251915, 0.0, 0.03200000151991844, 0.9920000471174717, 0.0, 0.0, 0.0, 0.0, 0.0, 1.6670470259459193E9, 0.0, 2022-10-29 14:37:05.945
75.0, -1751.8027983447537, -1696.1082082046196, 8631.13933243882, 7110.101451009978, 0.0, 0.03200000151991844, 0.9920000471174717, 0.0, 0.0, 0.0, 0.0, 0.0, 1.6670470259459193E9, 0.0, 2022-10-29 14:37:05.945
76.0, -1629.5622983430512, -1545.0143800447695, 8636.212506728712, 7266.700411904603, 0.0, 0.03200000151991844, 0.9920000471174717, 0.0, 0.0, 0.0, 0.0, 0.0, 1.667047025959519E9, 0.0, 2022-10-29 14:37:05.959
76.0, -1662.045199408196, -1577.631917508319, 8817.003010486718, 7226.107537785545, 0.0, 0.03200000151991844, 0.9920000471174717, 0.0, 0.0, 0.0, 0.0, 0.0, 1.667047025959519E9, 0.0, 2022-10-29 14:37:05.959
77.0, -1799.0695239347406, -1729.5747029581107, 8925.531167300884, 7386.7119315327145, 0.0, 0.03200000151991844, 0.9920000471174717, 0.0, 0.0, 0.0, 0.0, 0.0, 1.6670470259752145E9, 0.0, 2022-10-29 14:37:05.975
77.0, -1741.5779118658975, -1698.5129638761282, 9125.911267026793, 7620.182666066568, 0.0, 0.03200000151991844, 0.9920000471174717, 0.0, 0.0, 0.0, 0.0, 0.0, 1.6670470259752145E9, 0.0, 2022-10-29 14:37:05.975
78.0, -1650.599235593807, -1577.5739490590058, 9081.698169750627, 7748.687498494051, 0.0, 0.03200000151991844, 0.9920000471174717, 0.0, 0.0, 0.0, 0.0, 0.0, 1.6670470259760182E9, 0.0, 2022-10-29 14:37:05.976
78.0, -1641.0998897063546, -1550.9570810743608, 9285.84060883196, 7690.259041486308, 0.0, 0.03200000151991844, 0.9920000471174717, 0.0, 0.0, 0.0, 0.0, 0.0, 1.6670470259760182E9, 0.0, 2022-10-29 14:37:05.976
79.0, -1766.6988198682666, -1703.954518311657, 9463.42601832794, 7884.533754534554, 0.0, 0.03200000151991844, 0.9920000471174717, 0.0, 0.0, 0.0, 0.0, 0.0, 1.6670470259895697E9, 0.0, 2022-10-29 14:37:05.989
79.0, -1760.2119633951224, -1721.3525329055265, 9612.580708360765, 8123.326366705354, 0.0, 0.03200000151991844, 0.9920000471174717, 0.0, 0.0, 0.0, 0.0, 0.0, 1.6670470259895697E9, 0.0, 2022-10-29 14:37:05.989
80.0, -1684.439720342867, -1605.638158326503, 9574.2841328145, 8260.799479226582, 0.0, 0.03200000151991844, 0.9920000471174717, 0.0, 0.0, 0.0, 0.0, 0.0, 1.667047026005126E9, 0.0, 2022-10-29 14:37:06.005
80.0, -1637.489016299136, -1553.71712724166, 9791.994928935077, 8152.925804904662, 0.0, 0.03200000151991844, 0.9920000471174717, 0.0, 0.0, 0.0, 0.0, 0.0, 1.667047026005126E9, 0.0, 2022-10-29 14:37:06.005
81.0, -1748.0797279388644, -1679.3721559029073, 9965.496367679443, 8382.894123130012, 0.0, 0.03200000151991844, 0.9920000471174717, 0.0, 0.0, 0.0, 0.0, 0.0, 1.6670470260058663E9, 0.0, 2022-10-29 14:37:06.005
81.0, -1739.6817825883627, -1707.5186429694295, 10090.091134703252, 8146.0817879857495, 0.0, 0.03200000151991844, 0.9920000471174717, 0.0, 0.0, 0.0, 0.0, 0.0, 1.6670470260058663E9, 0.0, 2022-10-29 14:37:06.005
82.0, -1687.1006591613404, -1613.4021906345151, 10046.831711915787, 8276.1424187948, 0.0, 0.03200000151991844, 0.9920000471174717, 0.0, 0.0, 0.0, 0.0, 0.0, 1.6670470260195076E9, 0.0, 2022-10-29 14:37:06.019
82.0, -1628.9938335497864, -1530.017381222453, 10271.412704254966, 8158.028898394201, 0.0, 0.03200000151991844, 0.9920000471174717, 0.0, 0.0, 0.0, 0.0, 0.0, 1.6670470260195076E9, 0.0, 2022-10-29 14:37:06.019
83.0, -1766.538004170172, -1688.4114940958098, 10460.038298420142, 8393.614546352997, 0.0, 0.03200000151991844, 0.9920000471174717, 0.0, 0.0, 0.0, 0.0, 0.0, 1.6670470260351913E9, 0.0, 2022-10-29 14:37:06.035
83.0, -1746.3070153598674, -1699.3731408659369, 10584.176797649357, 8612.421133160591, 0.0, 0.03200000151991844, 0.9920000471174717, 0.0, 0.0, 0.0, 0.0, 0.0, 1.6670470260351913E9, 0.0, 2022-10-29 14:37:06.035
84.0, -1668.6835218295455, -1595.0654611517675, 10556.957805771846, 8758.941063674632, 0.0, 0.03200000151991844, 0.9920000471174717, 0.0, 0.0, 0.0, 0.0, 0.0, 1.667047026035993E9, 0.0, 2022-10-29 14:37:06.035
84.0, -1627.9522714121267, -1546.8431911231019, 10788.98867882276, 8663.708251202945, 0.0, 0.03200000151991844, 0.9920000471174717, 0.0, 0.0, 0.0, 0.0, 0.0, 1.667047026035993E9, 0.0, 2022-10-29 14:37:06.035
85.0, -1768.9820287912153, -1691.182759962976, 10932.821491218638, 8899.978300853632, 0.0, 0.03200000151991844, 0.9920000471174717, 0.0, 0.0, 0.0, 0.0, 0.0, 1.6670470260495172E9, 0.0, 2022-10-29 14:37:06.049
85.0, -1756.8965420844033, -1719.1833909312263, 11072.192602967378, 9100.642632976174, 0.0, 0.03200000151991844, 0.9920000471174717, 0.0, 0.0, 0.0, 0.0, 0.0, 1.6670470260495172E9, 0.0, 2022-10-29 14:37:06.049
86.0, -1649.0396973122843, -1576.1752264755778, 11041.49176423112, 9220.478377306368, 0.0, 0.03200000151991844, 0.9920000471174717, 0.0, 0.0, 0.0, 0.0, 0.0, 1.6670470260652668E9, 0.0, 2022-10-29 14:37:06.065
86.0, -1662.7520404998213, -1568.4972118665464, 11264.45711978944, 9195.41730770329, 0.0, 0.03200000151991844, 0.9920000471174717, 0.0, 0.0, 0.0, 0.0, 0.0, 1.6670470260652668E9, 0.0, 2022-10-29 14:37:06.065
87.0, -1772.433956450317, -1692.2748107500374, 11420.642821738962, 9351.660978102125, 0.0, 0.03200000151991844, 0.9920000471174717, 0.0, 0.0, 0.0, 0.0, 0.0, 1.6670470260660653E9, 0.0, 2022-10-29 14:37:06.066
87.0, -1759.2377194566652, -1710.297388636507, 11576.316157394554, 9108.782525229733, 0.0, 0.03200000151991844, 0.9920000471174717, 0.0, 0.0, 0.0, 0.0, 0.0, 1.6670470260660653E9, 0.0, 2022-10-29 14:37:06.066
88.0, -1641.9451070963405, -1567.2181660817005, 11572.194787643384, 9208.770620495081, 0.0, 0.03200000151991844, 0.9920000471174717, 0.0, 0.0, 0.0, 0.0, 0.0, 1.6670470260795133E9, 0.0, 2022-10-29 14:37:06.079
