%OpenBCI Raw EEG Data
%Number of channels = 4
%Sample Rate = 200 Hz
%Board = OpenBCI_GUI$BoardGanglionBLE
Sample Index, EXG Channel 0, EXG Channel 1, EXG Channel 2, EXG Channel 3, Accel Channel 0, Accel Channel 1, Accel Channel 2, Other, Other, Other, Other, Other, Timestamp, Other, Timestamp (Formatted)
2.0, 0.03552904957905412, 72.21559819439426, -148.97517483495176, -133.44711021892726, 0.01600000075995922, 0.0, 0.0, 0.0, 0.0, 0.0, 0.0, 0.0, 1.667046959585306E9, 0.0, 2022-10-29 14:35:59.585
2.0, 203.4112886399962, 295.8167367451824, -27.551842973567545, -102.44520953623578, 0.01600000075995922, 0.0, 0.0, 0.0, 0.0, 0.0, 0.0, 0.0, 1.667046959585306E9, 0.0, 2022-10-29 14:35:59.585
3.0, -13.151358194183558, 473.31425859220326, -0.6283031925559044, 16.386371655855328, 0.01600000075995922, 0.0, 0.0, 0.0, 0.0, 0.0, 0.0, 0.0, 1.6670469595988045E9, 0.0, 2022-10-29 14:35:59.598
3.0, -16.70426315208897, 537.672326979693, -180.13228136580437, -160.04714865377173, 0.01600000075995922, 0.0, 0.0, 0.0, 0.0, 0.0, 0.0, 0.0, 1.6670469595988045E9, 0.0, 2022-10-29 14:35:59.598
4.0, -124.63590592332184, 487.1593682281673, -253.64188494486734, -278.76279294723645, 0.01600000075995922, 0.0, 0.0, 0.0, 0.0, 0.0, 0.0, 0.0, 1.6670469595995848E9, 0.0, 2022-10-29 14:35:59.599
4.0, -306.5016309185885, 271.79161942983046, -48.08202378032729, -123.13807599106804, 0.01600000075995922, 0.0, 0.0, 0.0, 0.0, 0.0, 0.0, 0.0, 1.6670469595995848E9, 0.0, 2022-10-29 14:35:59.599
5.0, -512.5925578768365, 459.1886564595625, -0.09536744887009263, -0.805948440451175, 0.01600000075995922, 0.0, 0.0, 0.0, 0.0, 0.0, 0.0, 0.0, 1.6670469596131825E9, 0.0, 2022-10-29 14:35:59.613
5.0, -527.0323116057552, 525.551311223302, -189.4091032058932, -156.91685239085928, 0.01600000075995922, 0.0, 0.0, 0.0, 0.0, 0.0, 0.0, 0.0, 1.6670469596131825E9, 0.0, 2022-10-29 14:35:59.613
6.0, -606.3611995158717, 491.7931042732671, -247.02787187322974, -277.68570175999776, 0.01600000075995922, 0.0, 0.0, 0.0, 0.0, 0.0, 0.0, 0.0, 1.6670469596287956E9, 0.0, 2022-10-29 14:35:59.628
6.0, -781.9064935860224, 285.6404689657502, -42.915351991541684, -119.87688322970644, 0.01600000075995922, 0.0, 0.0, 0.0, 0.0, 0.0, 0.0, 0.0, 1.6670469596287956E9, 0.0, 2022-10-29 14:35:59.628
7.0, -984.650210083928, 482.06562448851764, -4.173728350549936, 24.41593686072156, 0.01600000075995922, 0.0, 0.0, 0.0, 0.0, 0.0, 0.0, 0.0, 1.6670469596295075E9, 0.0, 2022-10-29 14:35:59.629
7.0, -958.3231843458489, 572.9059244622476, -157.23661383707076, -99.61410526977852, 0.01600000075995922, 0.0, 0.0, 0.0, 0.0, 0.0, 0.0, 0.0, 1.6670469596295075E9, 0.0, 2022-10-29 14:35:59.629
8.0, -1052.791187276598, 535.8566055512056, -258.8104266836308, -304.7625774391927, 0.01600000075995922, 0.0, 0.0, 0.0, 0.0, 0.0, 0.0, 0.0, 1.6670469596432252E9, 0.0, 2022-10-29 14:35:59.643
8.0, -1250.7646613810211, 320.14478595694527, -19.55406691832468, -72.61950738960877, 0.01600000075995922, 0.0, 0.0, 0.0, 0.0, 0.0, 0.0, 0.0, 1.6670469596432252E9, 0.0, 2022-10-29 14:35:59.643
9.0, -1459.017250513658, 498.0462169991806, -13.07656019506976, -26.81695263227448, 0.01600000075995922, 0.0, 0.0, 0.0, 0.0, 0.0, 0.0, 0.0, 1.6670469596588628E9, 0.0, 2022-10-29 14:35:59.658
9.0, -1425.9546649553813, 591.100537746679, -121.3354442124255, -106.89943038346246, 0.01600000075995922, 0.0, 0.0, 0.0, 0.0, 0.0, 0.0, 0.0, 1.6670469596588628E9, 0.0, 2022-10-29 14:35:59.658
10.0, -1538.4489856725559, 544.7800068454817, -252.43202730920166, -309.51973018283024, 0.01600000075995922, 0.0, 0.9920000471174717, 0.0, 0.0, 0.0, 0.0, 0.0, 1.6670469596594856E9, 0.0, 2022-10-29 14:35:59.659
10.0, -1719.873402473051, 341.15554390801117, -480.38079955847934, -82.68357817037031, 0.01600000075995922, 0.0, 0.9920000471174717, 0.0, 0.0, 0.0, 0.0, 0.0, 1.6670469596594856E9, 0.0, 2022-10-29 14:35:59.659
11.0, -1946.5711781871505, 505.00243091676384, -506.18797920271754, -47.835190383251756, 0.01600000075995922, 0.0, 0.9920000471174717, 0.0, 0.0, 0.0, 0.0, 0.0, 1.6670469596731787E9, 0.0, 2022-10-29 14:35:59.673
11.0, -1888.0922325300053, 635.8895796160214, -601.0243622791022, -131.98293938627467, 0.01600000075995922, 0.0, 0.9920000471174717, 0.0, 0.0, 0.0, 0.0, 0.0, 1.6670469596731787E9, 0.0, 2022-10-29 14:35:59.673
12.0, -2000.7810280448757, 568.2067401679233, -712.6884252061136, -302.0436701714061, 0.0, 0.0, 0.9920000471174717, 0.0, 0.0, 0.0, 0.0, 0.0, 1.6670469596888092E9, 0.0, 2022-10-29 14:35:59.688
12.0, -2186.749423291534, 358.4937201025896, -475.8779600118287, -91.99592906003818, 0.0, 0.0, 0.9920000471174717, 0.0, 0.0, 0.0, 0.0, 0.0, 1.6670469596888092E9, 0.0, 2022-10-29 14:35:59.688
13.0, -2417.2955560600385, 522.7744355062023, -472.7252243491821, -4.964717191178352, 0.0, 0.0, 0.9920000471174717, 0.0, 0.0, 0.0, 0.0, 0.0, 1.6670469596895373E9, 0.0, 2022-10-29 14:35:59.689
13.0, -2365.1183418282308, 647.2626153812744, -605.7123268735595, -143.5354903494008, 0.0, 0.0, 0.9920000471174717, 0.0, 0.0, 0.0, 0.0, 0.0, 1.6670469596895373E9, 0.0, 2022-10-29 14:35:59.689
14.0, -2467.5411119647324, 590.8742737993598, -687.3786522559822, -279.27889914112166, 0.0, 0.0, 0.9920000471174717, 0.0, 0.0, 0.0, 0.0, 0.0, 1.667046959703117E9, 0.0, 2022-10-29 14:35:59.703
14.0, -2662.432908505667, 370.65213485853747, -476.99058024864644, -80.20776439970359, 0.0, 0.0, 0.9920000471174717, 0.0, 0.0, 0.0, 0.0, 0.0, 1.667046959703117E9, 0.0, 2022-10-29 14:35:59.703
15.0, -2888.55473962659, 538.6503108181059, -461.90756372734904, 3.375259710010141, 0.0, 0.0, 0.9920000471174717, 0.0, 0.0, 0.0, 0.0, 0.0, 1.6670469597187676E9, 0.0, 2022-10-29 14:35:59.718
15.0, -2835.5584873044863, 650.7594218398444, -598.0436620144174, -147.862554598134, 0.0, 0.0, 0.9920000471174717, 0.0, 0.0, 0.0, 0.0, 0.0, 1.6670469597187676E9, 0.0, 2022-10-29 14:35:59.718
16.0, -2944.529822263401, 602.0939736664295, -687.7769516012631, -252.53861445793882, 0.0, 0.0, 0.9920000471174717, 0.0, 0.0, 0.0, 0.0, 0.0, 1.6670469597195508E9, 0.0, 2022-10-29 14:35:59.719
16.0, -3163.08022592403, 363.8978755385615, -476.4613844049163, -61.44468632200733, 0.0, 0.0, 0.9920000471174717, 0.0, 0.0, 0.0, 0.0, 0.0, 1.6670469597195508E9, 0.0, 2022-10-29 14:35:59.719
17.0, -3380.7685826448724, 537.431103432551, -458.10969532234594, 27.744447821285576, 0.0, 0.0, 0.9920000471174717, 0.0, 0.0, 0.0, 0.0, 0.0, 1.6670469597496612E9, 0.0, 2022-10-29 14:35:59.749
17.0, -3336.5797947184183, 653.6241852059029, -590.9546816484071, -123.48962658690289, 0.0, 0.0, 0.9920000471174717, 0.0, 0.0, 0.0, 0.0, 0.0, 1.6670469597496612E9, 0.0, 2022-10-29 14:35:59.749
18.0, -3445.2668972807005, 591.1398066962138, -693.0633001886308, -258.57481298642233, 0.0, 0.0, 0.9920000471174717, 0.0, 0.0, 0.0, 0.0, 0.0, 1.667046959750178E9, 0.0, 2022-10-29 14:35:59.750
18.0, -3659.3069815947674, 351.481407685671, -474.16321588214487, -26.858091531787068, 0.0, 0.0, 0.9920000471174717, 0.0, 0.0, 0.0, 0.0, 0.0, 1.667046959750178E9, 0.0, 2022-10-29 14:35:59.750
19.0, -3893.2900824225508, 507.58670178614557, -487.5464478735812, 8.319407451432198, 0.0, 0.0, 0.9920000471174717, 0.0, 0.0, 0.0, 0.0, 0.0, 1.667046959751002E9, 0.0, 2022-10-29 14:35:59.751
19.0, -3821.3512368248776, 645.53104170179, -582.3342122505419, -104.81256620818749, 0.0, 0.0, 0.9920000471174717, 0.0, 0.0, 0.0, 0.0, 0.0, 1.667046959751002E9, 0.0, 2022-10-29 14:35:59.751
20.0, -3947.2979776826687, 579.3142430363223, -712.7239542556927, -279.3649168401025, 0.0, 0.0, 0.9920000471174717, 0.0, 0.0, 0.0, 0.0, 0.0, 1.6670469597631934E9, 0.0, 2022-10-29 14:35:59.763
20.0, -4147.75474535767, 354.32373165199533, -941.3608680968173, -500.85114196594805, 0.0, 0.0, 0.9920000471174717, 0.0, 0.0, 0.0, 0.0, 0.0, 1.6670469597631934E9, 0.0, 2022-10-29 14:35:59.763
21.0, -3921.111198192928, 488.9732197066769, -995.8717799009755, -498.61842169240117, 0.0, 0.0, 0.9920000471174717, 0.0, 0.0, 0.0, 0.0, 0.0, 1.6670469597789297E9, 0.0, 2022-10-29 14:35:59.778
21.0, -3846.5918216258287, 625.8516881349497, -1089.395458092913, -599.5807608962059, 0.0, 0.0, 0.9920000471174717, 0.0, 0.0, 0.0, 0.0, 0.0, 1.6670469597789297E9, 0.0, 2022-10-29 14:35:59.778
22.0, -3958.596215448808, 566.1497951922938, -1210.5177280078642, -765.5163820302114, 0.01600000075995922, 0.0, 0.9920000471174717, 0.0, 0.0, 0.0, 0.0, 0.0, 1.6670469597795274E9, 0.0, 2022-10-29 14:35:59.779
22.0, -4167.692152021453, 336.67514376109466, -1442.8534029051661, -1010.41064097872, 0.01600000075995922, 0.0, 0.9920000471174717, 0.0, 0.0, 0.0, 0.0, 0.0, 1.6670469597795274E9, 0.0, 2022-10-29 14:35:59.779
23.0, -4411.600947331637, 472.9739276962355, -1473.9188818871044, -969.526054663118, 0.01600000075995922, 0.0, 0.9920000471174717, 0.0, 0.0, 0.0, 0.0, 0.0, 1.6670469597931776E9, 0.0, 2022-10-29 14:35:59.793
23.0, -4330.712521139998, 635.1079405252822, -1580.779043321032, -1115.0231225392781, 0.01600000075995922, 0.0, 0.9920000471174717, 0.0, 0.0, 0.0, 0.0, 0.0, 1.6670469597931776E9, 0.0, 2022-10-29 14:35:59.793
24.0, -4430.2667880104855, 582.3136428007856, -1676.6457688352093, -1248.3281165598892, 0.01600000075995922, 0.0, 0.9920000471174717, 0.0, 0.0, 0.0, 0.0, 0.0, 1.6670469598087761E9, 0.0, 2022-10-29 14:35:59.808
24.0, -4636.183809620794, 351.9675946799107, -1441.8398900171742, -1475.3755729198456, 0.01600000075995922, 0.0, 0.9920000471174717, 0.0, 0.0, 0.0, 0.0, 0.0, 1.6670469598087761E9, 0.0, 2022-10-29 14:35:59.808
25.0, -4880.201062029693, 500.14804077427834, -1467.0898245680146, -1456.0664694486186, 0.01600000075995922, 0.0, 0.9920000471174717, 0.0, 0.0, 0.0, 0.0, 0.0, 1.6670469598095484E9, 0.0, 2022-10-29 14:35:59.809
25.0, -4803.87157388404, 647.5505876778625, -1576.6651533697732, -1595.2954649990425, 0.01600000075995922, 0.0, 0.9920000471174717, 0.0, 0.0, 0.0, 0.0, 0.0, 1.6670469598095484E9, 0.0, 2022-10-29 14:35:59.809
26.0, -4909.21146598598, 598.1109802136198, -1666.6714556533843, -1738.2568807052448, 0.01600000075995922, 0.0, 0.9920000471174717, 0.0, 0.0, 0.0, 0.0, 0.0, 1.6670469598231988E9, 0.0, 2022-10-29 14:35:59.823
26.0, -5113.99903780967, 365.95108061423525, -1428.4884471753612, -1964.5376575742848, 0.01600000075995922, 0.0, 0.9920000471174717, 0.0, 0.0, 0.0, 0.0, 0.0, 1.6670469598231988E9, 0.0, 2022-10-29 14:35:59.823
27.0, -4870.6942363423295, 513.720137713477, -1457.0070542874746, -1946.0924709928222, 0.01600000075995922, 0.0, 0.9920000471174717, 0.0, 0.0, 0.0, 0.0, 0.0, 1.6670469598387756E9, 0.0, 2022-10-29 14:35:59.838
27.0, -4788.758638163097, 662.0427000061609, -1565.6287086005323, -2115.7829516823404, 0.01600000075995922, 0.0, 0.9920000471174717, 0.0, 0.0, 0.0, 0.0, 0.0, 1.6670469598387756E9, 0.0, 2022-10-29 14:35:59.838
28.0, -4895.070904253516, 612.8349663391709, -1659.6778427362442, -2246.1334247379564, 0.01600000075995922, 0.0, 0.9920000471174717, 0.0, 0.0, 0.0, 0.0, 0.0, 1.6670469598394587E9, 0.0, 2022-10-29 14:35:59.839
28.0, -5099.140415285714, 377.7841240740381, -1904.5197430853732, -2450.060819571838, 0.01600000075995922, 0.0, 0.9920000471174717, 0.0, 0.0, 0.0, 0.0, 0.0, 1.6670469598394587E9, 0.0, 2022-10-29 14:35:59.839
29.0, -4872.930696515832, 515.1525193965062, -1959.5505009833723, -2462.815748370718, 0.01600000075995922, 0.0, 0.9920000471174717, 0.0, 0.0, 0.0, 0.0, 0.0, 1.667046959853158E9, 0.0, 2022-10-29 14:35:59.853
29.0, -4787.786264174618, 668.4528885302134, -2048.68353662733, -2609.259010935668, 0.01600000075995922, 0.0, 0.9920000471174717, 0.0, 0.0, 0.0, 0.0, 0.0, 1.667046959853158E9, 0.0, 2022-10-29 14:35:59.853
30.0, -4885.986687261146, 621.2871402390301, -2150.885652666446, -2729.45191571163, 0.01600000075995922, 0.0, 0.9920000471174717, 0.0, 0.0, 0.0, 0.0, 0.0, 1.6670469598688154E9, 0.0, 2022-10-29 14:35:59.868
30.0, -5102.218352949247, 865.5961048444733, -2390.263559180312, -2926.3856976283714, 0.01600000075995922, 0.0, 0.9920000471174717, 0.0, 0.0, 0.0, 0.0, 0.0, 1.6670469598688154E9, 0.0, 2022-10-29 14:35:59.868
31.0, -4880.036506431643, 1000.159575200174, -2451.4053136059083, -2910.966090111062, 0.01600000075995922, 0.0, 0.9920000471174717, 0.0, 0.0, 0.0, 0.0, 0.0, 1.6670469598695636E9, 0.0, 2022-10-29 14:35:59.869
31.0, -4783.780831322074, 1159.346546864137, -2535.773716706317, -3084.9462360497564, 0.01600000075995922, 0.0, 0.9920000471174717, 0.0, 0.0, 0.0, 0.0, 0.0, 1.6670469598695636E9, 0.0, 2022-10-29 14:35:59.869
32.0, -4871.094405637588, 1125.6967970128171, -2638.8696688348427, -3213.262203529477, 0.01600000075995922, 0.0, 0.9920000471174717, 0.0, 0.0, 0.0, 0.0, 0.0, 1.6670469598830783E9, 0.0, 2022-10-29 14:35:59.883
32.0, -5048.363793587312, 923.321460660547, -2826.5733776609413, -3373.8591174767353, 0.01600000075995922, 0.0, 0.9920000471174717, 0.0, 0.0, 0.0, 0.0, 0.0, 1.6670469598830783E9, 0.0, 2022-10-29 14:35:59.883
33.0, -4932.585840709042, 940.4520724075846, -2967.6667133392766, -3440.595762236044, 0.01600000075995922, 0.0, 0.9920000471174717, 0.0, 0.0, 0.0, 0.0, 0.0, 1.6670469598987427E9, 0.0, 2022-10-29 14:35:59.898
33.0, -4811.744063290767, 1134.947439553216, -3051.784543142654, -3607.3840805599466, 0.01600000075995922, 0.0, 0.9920000471174717, 0.0, 0.0, 0.0, 0.0, 0.0, 1.6670469598987427E9, 0.0, 2022-10-29 14:35:59.898
34.0, -4895.856283244211, 1099.947585817892, -3126.1468439116143, -3707.9948691679165, 0.01600000075995922, 0.0, 0.9920000471174717, 0.0, 0.0, 0.0, 0.0, 0.0, 1.66704695989947E9, 0.0, 2022-10-29 14:35:59.899
34.0, -5109.698152860627, 864.4142964584753, -2892.792046276387, -3916.4886818476953, 0.01600000075995922, 0.0, 0.9920000471174717, 0.0, 0.0, 0.0, 0.0, 0.0, 1.66704695989947E9, 0.0, 2022-10-29 14:35:59.899
35.0, -4898.115182817448, 974.350525605958, -2938.3496375866234, -3891.752983540762, 0.01600000075995922, 0.0, 0.9920000471174717, 0.0, 0.0, 0.0, 0.0, 0.0, 1.6670469599130826E9, 0.0, 2022-10-29 14:35:59.913
35.0, -4794.970611989498, 1145.8903868235648, -3035.250445438549, -4069.876938630361, 0.01600000075995922, 0.0, 0.9920000471174717, 0.0, 0.0, 0.0, 0.0, 0.0, 1.6670469599130826E9, 0.0, 2022-10-29 14:35:59.913
36.0, -4875.537406784948, 1127.6602444895543, -3104.7695757648908, -4113.443033214193, 0.01600000075995922, 0.0, 0.9920000471174717, 0.0, 0.0, 0.0, 0.0, 0.0, 1.6670469599288E9, 0.0, 2022-10-29 14:35:59.928
36.0, -5091.582077475265, 1369.1717639281414, -2882.873831593897, -3922.640817274805, 0.01600000075995922, 0.0, 0.9920000471174717, 0.0, 0.0, 0.0, 0.0, 0.0, 1.6670469599288E9, 0.0, 2022-10-29 14:35:59.928
37.0, -4875.791719981935, 1488.0762731693685, -2918.7600416187197, -3880.0844956790097, 0.01600000075995922, 0.0, 0.9920000471174717, 0.0, 0.0, 0.0, 0.0, 0.0, 1.667046959929504E9, 0.0, 2022-10-29 14:35:59.929
37.0, -4782.086656642146, 1653.0563498646952, -3034.1209956519306, -4066.993475764524, 0.01600000075995922, 0.0, 0.9920000471174717, 0.0, 0.0, 0.0, 0.0, 0.0, 1.667046959929504E9, 0.0, 2022-10-29 14:35:59.929
38.0, -4875.739361382555, 1611.2760575097054, -3094.963558081072, -4165.393983498681, 0.01600000075995922, 0.0, 0.9920000471174717, 0.0, 0.0, 0.0, 0.0, 0.0, 1.6670469599431453E9, 0.0, 2022-10-29 14:35:59.943
38.0, -5089.016506105661, 1366.9353037546389, -2882.526020898018, -4404.338061617687, 0.01600000075995922, 0.0, 0.9920000471174717, 0.0, 0.0, 0.0, 0.0, 0.0, 1.6670469599431453E9, 0.0, 2022-10-29 14:35:59.943
39.0, -4881.487587614451, 1481.8642993429676, -2921.325612988323, -4399.622047773562, 0.01600000075995922, 0.0, 0.9920000471174717, 0.0, 0.0, 0.0, 0.0, 0.0, 1.6670469599587264E9, 0.0, 2022-10-29 14:35:59.958
39.0, -4773.963593938388, 1653.6472540576942, -3023.118209982291, -4561.713051753119, 0.01600000075995922, 0.0, 0.9920000471174717, 0.0, 0.0, 0.0, 0.0, 0.0, 1.6670469599587264E9, 0.0, 2022-10-29 14:35:59.958
40.0, -4840.883493795525, 1639.142052079551, -3087.9213264645077, -4632.198946218006, 0.01600000075995922, 0.0, 1.008000047877431, 0.0, 0.0, 0.0, 0.0, 0.0, 1.6670469599594483E9, 0.0, 2022-10-29 14:35:59.959
40.0, -5060.1781375473365, 1879.580220230855, -2860.793462255504, -4404.038869621232, 0.01600000075995922, 0.0, 1.008000047877431, 0.0, 0.0, 0.0, 0.0, 0.0, 1.6670469599594483E9, 0.0, 2022-10-29 14:35:59.959
41.0, -4858.1393921910785, 1990.0624747718684, -2912.2376560959965, -4384.060324057937, 0.01600000075995922, -0.01600000075995922, 1.008000047877431, 0.0, 0.0, 0.0, 0.0, 0.0, 1.6670469599731216E9, 0.0, 2022-10-29 14:35:59.973
41.0, -4744.70261668507, 2172.3470685621724, -3006.3597182808444, -4521.860677825287, 0.01600000075995922, -0.01600000075995922, 1.008000047877431, 0.0, 0.0, 0.0, 0.0, 0.0, 1.6670469599731216E9, 0.0, 2022-10-29 14:35:59.973
42.0, -4828.7961371387355, 2140.918819284532, -3094.417532687541, -4662.0358680645, 0.01600000075995922, -0.01600000075995922, 1.008000047877431, 0.0, 0.0, 0.0, 0.0, 0.0, 1.6670469599887173E9, 0.0, 2022-10-29 14:35:59.988
42.0, -5053.868926322088, 2381.2485303371213, -3336.9631344638765, -4886.158722659107, 0.01600000075995922, -0.01600000075995922, 1.008000047877431, 0.0, 0.0, 0.0, 0.0, 0.0, 1.6670469599887173E9, 0.0, 2022-10-29 14:35:59.988
43.0, -4868.667210566346, 2471.3258907198906, -3412.350167820696, -4874.456575697754, 0.01600000075995922, -0.01600000075995922, 1.008000047877431, 0.0, 0.0, 0.0, 0.0, 0.0, 1.6670469599894538E9, 0.0, 2022-10-29 14:35:59.989
43.0, -4757.724948330782, 2651.47126173554, -3501.4719837647863, -5008.431011810433, 0.01600000075995922, -0.01600000075995922, 1.008000047877431, 0.0, 0.0, 0.0, 0.0, 0.0, 1.6670469599894538E9, 0.0, 2022-10-29 14:35:59.989
44.0, -4823.246125604492, 2639.471792727709, -3590.251598862931, -5168.345394015778, 0.01600000075995922, -0.01600000075995922, 1.008000047877431, 0.0, 0.0, 0.0, 0.0, 0.0, 1.6670469600194588E9, 0.0, 2022-10-29 14:36:00.019
44.0, -5043.303708947264, 2397.954663439188, -3819.6028335955925, -5369.123793086968, 0.01600000075995922, -0.01600000075995922, 1.008000047877431, 0.0, 0.0, 0.0, 0.0, 0.0, 1.6670469600194588E9, 0.0, 2022-10-29 14:36:00.019
45.0, -4859.975683069322, 2494.1691996492445, -3896.2015945380554, -5382.873535274062, 0.01600000075995922, -0.01600000075995922, 1.008000047877431, 0.0, 0.0, 0.0, 0.0, 0.0, 1.667046960020162E9, 0.0, 2022-10-29 14:36:00.020
45.0, -4725.539369312115, 2681.1660673837177, -3976.527165786363, -5504.69329653075, 0.01600000075995922, -0.01600000075995922, 1.008000047877431, 0.0, 0.0, 0.0, 0.0, 0.0, 1.667046960020162E9, 0.0, 2022-10-29 14:36:00.020
46.0, -4813.765479216818, 2649.767737305723, -4064.536361493636, -5642.407632599119, 0.01600000075995922, -0.01600000075995922, 1.008000047877431, 0.0, 0.0, 0.0, 0.0, 0.0, 1.6670469600210228E9, 0.0, 2022-10-29 14:36:00.021
46.0, -5045.77952271793, 2879.7566249808297, -3823.1482587535866, -5840.526962801814, 0.01600000075995922, -0.01600000075995922, 1.008000047877431, 0.0, 0.0, 0.0, 0.0, 0.0, 1.6670469600210228E9, 0.0, 2022-10-29 14:36:00.021
47.0, -4879.307225940283, 2951.572053879965, -3910.499232068658, -5851.310964324046, 0.01600000075995922, -0.01600000075995922, 1.008000047877431, 0.0, 0.0, 0.0, 0.0, 0.0, 1.6670469600330362E9, 0.0, 2022-10-29 14:36:00.033
47.0, -4750.346125718206, 3154.863665721379, -3971.3586240475997, -5976.945423535537, 0.01600000075995922, -0.01600000075995922, 1.008000047877431, 0.0, 0.0, 0.0, 0.0, 0.0, 1.6670469600330362E9, 0.0, 2022-10-29 14:36:00.033
48.0, -4825.92015407281, 3121.722542264033, -4063.582687004935, -6094.56901704194, 0.01600000075995922, -0.01600000075995922, 1.008000047877431, 0.0, 0.0, 0.0, 0.0, 0.0, 1.6670469600488305E9, 0.0, 2022-10-29 14:36:00.048
48.0, -5047.066048302688, 2883.7283987337723, -4307.4409936657175, -6331.497289084829, 0.01600000075995922, -0.01600000075995922, 1.008000047877431, 0.0, 0.0, 0.0, 0.0, 0.0, 1.6670469600488305E9, 0.0, 2022-10-29 14:36:00.048
49.0, -4862.444017040078, 2974.6883755060844, -4387.570220166352, -6353.100821178872, 0.01600000075995922, -0.01600000075995922, 1.008000047877431, 0.0, 0.0, 0.0, 0.0, 0.0, 1.667046960049474E9, 0.0, 2022-10-29 14:36:00.049
49.0, -4734.769442402758, 3161.270114345476, -4459.222963417415, -6435.1804055063985, 0.01600000075995922, -0.01600000075995922, 1.008000047877431, 0.0, 0.0, 0.0, 0.0, 0.0, 1.667046960049474E9, 0.0, 2022-10-29 14:36:00.049
50.0, -4813.772959016729, 3136.483927389141, -4551.035637379624, -6604.302421402652, 0.01600000075995922, -0.01600000075995922, 1.008000047877431, 0.0, 0.0, 0.0, 0.0, 0.0, 1.6670469600630305E9, 0.0, 2022-10-29 14:36:00.063
50.0, -5021.971319600008, 2900.30363533739, -4791.513074480463, -6827.606237906963, 0.01600000075995922, -0.01600000075995922, 1.008000047877431, 0.0, 0.0, 0.0, 0.0, 0.0, 1.6670469600630305E9, 0.0, 2022-10-29 14:36:00.063
51.0, -4858.225409890059, 2971.688975741621, -4877.652320209891, -6834.736357172485, 0.01600000075995922, -0.01600000075995922, 1.008000047877431, 0.0, 0.0, 0.0, 0.0, 0.0, 1.6670469600787208E9, 0.0, 2022-10-29 14:36:00.078
51.0, -4734.6983843036, 3156.8383328979835, -4956.429572876543, -6951.862543984782, 0.01600000075995922, -0.01600000075995922, 1.008000047877431, 0.0, 0.0, 0.0, 0.0, 0.0, 1.6670469600787208E9, 0.0, 2022-10-29 14:36:00.078
52.0, -4817.224886675831, 3142.6061436166056, -5046.836044455413, -7116.160088938195, 0.01600000075995922, -0.01600000075995922, 1.008000047877431, 0.0, 0.0, 0.0, 0.0, 0.0, 1.6670469600795753E9, 0.0, 2022-10-29 14:36:00.079
52.0, -5023.889888277277, 2906.575447563082, -5284.897506184876, -7314.313078240491, 0.01600000075995922, -0.01600000075995922, 1.008000047877431, 0.0, 0.0, 0.0, 0.0, 0.0, 1.6670469600795753E9, 0.0, 2022-10-29 14:36:00.079
53.0, -4878.8472182457335, 2948.920464811381, -5379.268271716777, -7314.898372583557, 0.01600000075995922, -0.01600000075995922, 1.008000047877431, 0.0, 0.0, 0.0, 0.0, 0.0, 1.6670469600930607E9, 0.0, 2022-10-29 14:36:00.093
53.0, -4772.430234956555, 3130.5318766096607, -5468.966032254044, -7463.95956511749, 0.01600000075995922, -0.01600000075995922, 1.008000047877431, 0.0, 0.0, 0.0, 0.0, 0.0, 1.6670469600930607E9, 0.0, 2022-10-29 14:36:00.093
54.0, -4827.868641949724, 3119.1233117948286, -5536.357159505598, -7615.683566419873, 0.01600000075995922, -0.01600000075995922, 1.008000047877431, 0.0, 0.0, 0.0, 0.0, 0.0, 1.6670469601088698E9, 0.0, 2022-10-29 14:36:00.108
54.0, -5031.803516583517, 2891.054862746969, -5292.915851689875, -7816.854654986411, 0.01600000075995922, -0.01600000075995922, 1.008000047877431, 0.0, 0.0, 0.0, 0.0, 0.0, 1.6670469601088698E9, 0.0, 2022-10-29 14:36:00.108
55.0, -4879.808372534346, 2945.722850349266, -5362.094651120249, -7791.505613086745, 0.01600000075995922, -0.01600000075995922, 1.008000047877431, 0.0, 0.0, 0.0, 0.0, 0.0, 1.66704696010964E9, 0.0, 2022-10-29 14:36:00.109
55.0, -4761.577045285143, 3132.1026345910504, -5463.457159619313, -7954.490453155711, 0.01600000075995922, -0.01600000075995922, 1.008000047877431, 0.0, 0.0, 0.0, 0.0, 0.0, 1.66704696010964E9, 0.0, 2022-10-29 14:36:00.109
56.0, -4831.488865106832, 3113.3937850627117, -5531.790741659701, -8068.16097240895, 0.01600000075995922, -0.01600000075995922, 1.008000047877431, 0.0, 0.0, 0.0, 0.0, 0.0, 1.6670469601231625E9, 0.0, 2022-10-29 14:36:00.123
56.0, -5032.263524278067, 2885.104681917466, -5308.028787410818, -7835.815947761759, 0.01600000075995922, -0.01600000075995922, 1.008000047877431, 0.0, 0.0, 0.0, 0.0, 0.0, 1.6670469601231625E9, 0.0, 2022-10-29 14:36:00.123
57.0, -4877.433536062483, 2938.919972329866, -5363.485893903766, -7786.774639642797, 0.01600000075995922, -0.01600000075995922, 1.008000047877431, 0.0, 0.0, 0.0, 0.0, 0.0, 1.6670469601387482E9, 0.0, 2022-10-29 14:36:00.138
57.0, -4778.118622789159, 3123.2615110957995, -5476.356074566487, -7968.148567793891, 0.01600000075995922, -0.01600000075995922, 1.008000047877431, 0.0, 0.0, 0.0, 0.0, 0.0, 1.6670469601387482E9, 0.0, 2022-10-29 14:36:00.138
58.0, -4841.223824691493, 3098.3780867406167, -5534.217936730944, -8076.246636113152, 0.01600000075995922, -0.01600000075995922, 1.008000047877431, 0.0, 0.0, 0.0, 0.0, 0.0, 1.6670469601395628E9, 0.0, 2022-10-29 14:36:00.139
58.0, -5030.887241094373, 2891.3353552436456, -5301.487702388316, -7847.405897724442, 0.01600000075995922, -0.01600000075995922, 1.008000047877431, 0.0, 0.0, 0.0, 0.0, 0.0, 1.6670469601395628E9, 0.0, 2022-10-29 14:36:00.139
59.0, -4864.6767373136245, 2968.6708764773794, -5367.60352375498, -7777.058379557915, 0.01600000075995922, -0.01600000075995922, 1.008000047877431, 0.0, 0.0, 0.0, 0.0, 0.0, 1.6670469601530416E9, 0.0, 2022-10-29 14:36:00.153
59.0, -4775.713867117651, 3130.1017881147563, -5479.179699033033, -7964.820056833327, 0.01600000075995922, -0.01600000075995922, 1.008000047877431, 0.0, 0.0, 0.0, 0.0, 0.0, 1.6670469601530416E9, 0.0, 2022-10-29 14:36:00.153
60.0, -4838.706872021314, 3115.379671939183, -5544.756974806078, -8024.87163042184, 0.01600000075995922, -0.01600000075995922, 0.9920000471174717, 0.0, 0.0, 0.0, 0.0, 0.0, 1.6670469601688056E9, 0.0, 2022-10-29 14:36:00.168
60.0, -5049.347387275659, 2880.1343548763543, -5322.191788543016, -7828.740057045594, 0.01600000075995922, -0.01600000075995922, 0.9920000471174717, 0.0, 0.0, 0.0, 0.0, 0.0, 1.6670469601688056E9, 0.0, 2022-10-29 14:36:00.168
61.0, -4877.239061264787, 2955.457809933927, -5377.312304039951, -7794.48631335143, 0.01600000075995922, 0.0, 0.9920000471174717, 0.0, 0.0, 0.0, 0.0, 0.0, 1.6670469601694996E9, 0.0, 2022-10-29 14:36:00.169
61.0, -4783.160007929429, 3128.897540329024, -5485.230857161339, -7964.524604736827, 0.01600000075995922, 0.0, 0.9920000471174717, 0.0, 0.0, 0.0, 0.0, 0.0, 1.6670469601694996E9, 0.0, 2022-10-29 14:36:00.169
62.0, -4834.978191765491, 3128.4244429846294, -5556.949048661627, -8091.131437936798, 0.0, 0.0, 0.9920000471174717, 0.0, 0.0, 0.0, 0.0, 0.0, 1.6670469601830842E9, 0.0, 2022-10-29 14:36:00.183
62.0, -5025.995451952331, 2904.499803087674, -5796.297035975847, -8326.410414099228, 0.0, 0.0, 0.9920000471174717, 0.0, 0.0, 0.0, 0.0, 0.0, 1.6670469601830842E9, 0.0, 2022-10-29 14:36:00.183
63.0, -4876.835152069572, 2953.5093220570125, -5874.129963903688, -8281.774708128069, 0.0, 0.0, 0.9920000471174717, 0.0, 0.0, 0.0, 0.0, 0.0, 1.66704696019875E9, 0.0, 2022-10-29 14:36:00.198
63.0, -4772.344217257574, 3131.8109223945066, -5962.642176155001, -8417.443318920676, 0.0, 0.0, 0.9920000471174717, 0.0, 0.0, 0.0, 0.0, 0.0, 1.66704696019875E9, 0.0, 2022-10-29 14:36:00.198
64.0, -4826.604555764701, 3135.8313148468733, -6040.733157179784, -8573.000717677642, 0.0, 0.0, 0.9920000471174717, 0.0, 0.0, 0.0, 0.0, 0.0, 1.6670469601995208E9, 0.0, 2022-10-29 14:36:00.199
64.0, -5017.801331149414, 2919.685666857753, -6271.606531194411, -8796.326973581687, 0.0, 0.0, 0.9920000471174717, 0.0, 0.0, 0.0, 0.0, 0.0, 1.6670469601995208E9, 0.0, 2022-10-29 14:36:00.199
65.0, -4866.2923740944825, 2969.6339007159695, -6360.161752295215, -8784.867920117453, 0.0, 0.0, 0.9920000471174717, 0.0, 0.0, 0.0, 0.0, 0.0, 1.6670469602130475E9, 0.0, 2022-10-29 14:36:00.213
65.0, -4653.082547570579, 2759.41412420664, -6359.415642254055, -8881.308720274828, 0.0, 0.0, 0.9920000471174717, 0.0, 0.0, 0.0, 0.0, 0.0, 1.6670469602130475E9, 0.0, 2022-10-29 14:36:00.213
66.0, -4887.55370534258, 2586.2174873086624, -6575.501451843884, -9096.042556030676, 0.0, 0.0, 0.9920000471174717, 0.0, 0.0, 0.0, 0.0, 0.0, 1.6670469602287445E9, 0.0, 2022-10-29 14:36:00.228
66.0, -5026.720992543735, 2407.908407171257, -6785.221951709129, -9335.289566046093, 0.0, 0.0, 0.9920000471174717, 0.0, 0.0, 0.0, 0.0, 0.0, 1.6670469602287445E9, 0.0, 2022-10-29 14:36:00.228
67.0, -4877.369957763236, 2464.143412854988, -6849.149931601714, -9269.257892428432, 0.0, 0.0, 0.9920000471174717, 0.0, 0.0, 0.0, 0.0, 0.0, 1.667046960229552E9, 0.0, 2022-10-29 14:36:00.229
67.0, -4780.111989465542, 2634.561304085888, -6960.355856784154, -9439.232605514582, 0.0, 0.0, 0.9920000471174717, 0.0, 0.0, 0.0, 0.0, 0.0, 1.667046960229552E9, 0.0, 2022-10-29 14:36:00.229
68.0, -4843.617360663135, 2621.477264090907, -7019.436926334165, -9560.124871582258, 0.0, 0.0, 0.9920000471174717, 0.0, 0.0, 0.0, 0.0, 0.0, 1.6670469602430334E9, 0.0, 2022-10-29 14:36:00.243
68.0, -5046.953851304017, 2389.4707003897056, -6794.268769701943, -9330.091105107684, 0.0, 0.0, 0.9920000471174717, 0.0, 0.0, 0.0, 0.0, 0.0, 1.6670469602430334E9, 0.0, 2022-10-29 14:36:00.243
69.0, -4906.208326321561, 2437.298410973046, -6850.503775385674, -9251.085718543734, 0.0, 0.0, 0.9920000471174717, 0.0, 0.0, 0.0, 0.0, 0.0, 1.667046960258728E9, 0.0, 2022-10-29 14:36:00.258
69.0, -4808.247256832197, 2603.8006269503385, -6981.553609733004, -9466.354359993245, 0.0, 0.0, 0.9920000471174717, 0.0, 0.0, 0.0, 0.0, 0.0, 1.667046960258728E9, 0.0, 2022-10-29 14:36:00.258
70.0, -4840.614220998716, 2628.842997053638, -6999.757572767325, -9537.412459151354, 0.0, 0.0, 0.9920000471174717, 0.0, 0.0, 0.0, 0.0, 0.0, 1.6670469602595625E9, 0.0, 2022-10-29 14:36:00.259
70.0, -5045.5364292208105, 2398.0369412382133, -6800.065614633262, -9319.492228633258, 0.0, 0.0, 0.9920000471174717, 0.0, 0.0, 0.0, 0.0, 0.0, 1.6670469602595625E9, 0.0, 2022-10-29 14:36:00.259
71.0, -4899.225933104288, 2443.123305154033, -6854.281074340921, -9230.037561593112, 0.0, -0.01600000075995922, 0.9920000471174717, 0.0, 0.0, 0.0, 0.0, 0.0, 1.6670469602730606E9, 0.0, 2022-10-29 14:36:00.273
71.0, -4794.877114490606, 2625.235863546375, -6978.801043365616, -9459.457984474953, 0.0, -0.01600000075995922, 0.9920000471174717, 0.0, 0.0, 0.0, 0.0, 0.0, 1.6670469602730606E9, 0.0, 2022-10-29 14:36:00.273
72.0, -4845.375113642309, 2635.296194427181, -7011.5681768273935, -9515.825756607112, 0.0, -0.01600000075995922, 0.9920000471174717, 0.0, 0.0, 0.0, 0.0, 0.0, 1.667046960289811E9, 0.0, 2022-10-29 14:36:00.289
72.0, -5047.750449994579, 2395.4321009190753, -6803.266968995333, -9307.311374477576, 0.0, -0.01600000075995922, 0.9920000471174717, 0.0, 0.0, 0.0, 0.0, 0.0, 1.667046960289811E9, 0.0, 2022-10-29 14:36:00.289
73.0, -4912.00517125288, 2433.9025818132795, -6867.2510473872535, -9232.58069356298, 0.0, -0.01600000075995922, 0.9920000471174717, 0.0, 0.0, 0.0, 0.0, 0.0, 1.6670469603037422E9, 0.0, 2022-10-29 14:36:00.303
73.0, -4797.128534263931, 2620.1514695566148, -6984.683905995917, -9444.06829615729, 0.0, -0.01600000075995922, 0.9920000471174717, 0.0, 0.0, 0.0, 0.0, 0.0, 1.6670469603037422E9, 0.0, 2022-10-29 14:36:00.303
74.0, -4835.471858559642, 2634.333170188591, -7017.08078936208, -9541.365533404518, 0.0, -0.01600000075995922, 0.9920000471174717, 0.0, 0.0, 0.0, 0.0, 0.0, 1.6670469603044665E9, 0.0, 2022-10-29 14:36:00.304
74.0, -5019.0392380347475, 2429.6839746632613, -6785.999850899912, -9331.800239387434, 0.0, -0.01600000075995922, 0.9920000471174717, 0.0, 0.0, 0.0, 0.0, 0.0, 1.6670469603044665E9, 0.0, 2022-10-29 14:36:00.304
75.0, -4886.914182450157, 2459.021619865671, -6841.135325996671, -9262.817784704734, 0.0, -0.01600000075995922, 0.9920000471174717, 0.0, 0.0, 0.0, 0.0, 0.0, 1.6670469603187962E9, 0.0, 2022-10-29 14:36:00.318
75.0, -4730.835067649372, 2676.251838841941, -6952.273932979908, -9488.038299936336, 0.0, -0.01600000075995922, 0.9920000471174717, 0.0, 0.0, 0.0, 0.0, 0.0, 1.6670469603187962E9, 0.0, 2022-10-29 14:36:00.318
76.0, -4750.789303862955, 2712.749522509519, -6965.765622070059, -9555.11714554159, 0.0, -0.01600000075995922, 0.9920000471174717, 0.0, 0.0, 0.0, 0.0, 0.0, 1.6670469603194852E9, 0.0, 2022-10-29 14:36:00.319
76.0, -4520.882693986874, 2924.569976199884, -6746.884237263352, -9759.968295664527, 0.0, -0.01600000075995922, 0.9920000471174717, 0.0, 0.0, 0.0, 0.0, 0.0, 1.6670469603194852E9, 0.0, 2022-10-29 14:36:00.319
77.0, -4428.497815331444, 2916.5927695943974, -6865.55313280737, -9744.638445746154, 0.0, -0.01600000075995922, 0.9920000471174717, 0.0, 0.0, 0.0, 0.0, 0.0, 1.667046960333064E9, 0.0, 2022-10-29 14:36:00.333
77.0, -4288.230997543316, 3138.9279520101845, -6963.467453547288, -9948.350796332583, 0.0, -0.01600000075995922, 0.9920000471174717, 0.0, 0.0, 0.0, 0.0, 0.0, 1.667046960333064E9, 0.0, 2022-10-29 14:36:00.333
78.0, -4292.537492342293, 3176.585004664026, -7004.080897116102, -10065.031935050152, 0.0, -0.01600000075995922, 0.9920000471174717, 0.0, 0.0, 0.0, 0.0, 0.0, 1.6670469603487253E9, 0.0, 2022-10-29 14:36:00.348
78.0, -4049.2943992242217, 3390.1519916336983, -6759.659735511988, -10232.566363415215, 0.0, -0.01600000075995922, 0.9920000471174717, 0.0, 0.0, 0.0, 0.0, 0.0, 1.6670469603487253E9, 0.0, 2022-10-29 14:36:00.348
79.0, -3988.7398090916686, 3360.99573157914, -6897.903267424088, -10266.197413766757, 0.0, -0.01600000075995922, 0.9920000471174717, 0.0, 0.0, 0.0, 0.0, 0.0, 1.6670469603494797E9, 0.0, 2022-10-29 14:36:00.349
79.0, -3808.3999632783234, 3116.7989639723673, -6969.578450074885, -10449.112180699594, 0.0, -0.01600000075995922, 0.9920000471174717, 0.0, 0.0, 0.0, 0.0, 0.0, 1.6670469603494797E9, 0.0, 2022-10-29 14:36:00.349
80.0, -3810.395199904684, 3182.4641273943707, -7001.728500043973, -10544.973296363838, 0.0, -0.01600000075995922, 0.9920000471174717, 0.0, 0.0, 0.0, 0.0, 0.0, 1.6670469603630688E9, 0.0, 2022-10-29 14:36:00.363
80.0, -3584.9502906757407, 3375.005396813154, -6779.694379574619, -10718.293349960353, 0.0, -0.01600000075995922, 0.9920000471174717, 0.0, 0.0, 0.0, 0.0, 0.0, 1.6670469603630688E9, 0.0, 2022-10-29 14:36:00.363
81.0, -3517.383388126269, 3347.715346836485, -6921.554394743871, -10714.10466200998, 0.0, 0.0, 0.9920000471174717, 0.0, 0.0, 0.0, 0.0, 0.0, 1.6670469603787422E9, 0.0, 2022-10-29 14:36:00.378
81.0, -3314.548044079449, 3125.9018804645166, -6985.424406187143, -10473.283154113218, 0.0, 0.0, 0.9920000471174717, 0.0, 0.0, 0.0, 0.0, 0.0, 1.6670469603787422E9, 0.0, 2022-10-29 14:36:00.378
82.0, -3329.599271451123, 3168.723734957166, -7010.300350742415, -10554.345485652797, 0.0, 0.0, 0.9920000471174717, 0.0, 0.0, 0.0, 0.0, 0.0, 1.6670469603794725E9, 0.0, 2022-10-29 14:36:00.379
82.0, -3119.0429039457813, 3348.897155222483, -6786.085868598893, -10719.168486549985, 0.0, 0.0, 0.9920000471174717, 0.0, 0.0, 0.0, 0.0, 0.0, 1.6670469603794725E9, 0.0, 2022-10-29 14:36:00.379
83.0, -3047.489268043544, 3326.7868666844442, -6931.708223123569, -10768.465977815911, 0.0, 0.0, 0.9920000471174717, 0.0, 0.0, 0.0, 0.0, 0.0, 1.6670469603930805E9, 0.0, 2022-10-29 14:36:00.393
83.0, -2828.976263382472, 3126.7096988549456, -6990.402213028166, -10997.531110201962, 0.0, 0.0, 0.9920000471174717, 0.0, 0.0, 0.0, 0.0, 0.0, 1.6670469603930805E9, 0.0, 2022-10-29 14:36:00.393
84.0, -2848.530330300797, 3165.178309799172, -7012.125421920791, -11063.858235916123, 0.0, 0.0, 0.9920000471174717, 0.0, 0.0, 0.0, 0.0, 0.0, 1.6670469604087284E9, 0.0, 2022-10-29 14:36:00.408
84.0, -2638.564866988454, 3342.9581940928474, -6779.72803867422, -11200.201898650732, 0.0, 0.0, 0.9920000471174717, 0.0, 0.0, 0.0, 0.0, 0.0, 1.6670469604087284E9, 0.0, 2022-10-29 14:36:00.408
85.0, -2564.9916851101443, 3323.966982117854, -6926.906191580463, -11254.215403760783, 0.0, 0.0, 0.9920000471174717, 0.0, 0.0, 0.0, 0.0, 0.0, 1.6670469604094968E9, 0.0, 2022-10-29 14:36:00.409
85.0, -2324.820919805672, 3142.409798868932, -6975.480012204964, -11473.407200263813, 0.0, 0.0, 0.9920000471174717, 0.0, 0.0, 0.0, 0.0, 0.0, 1.6670469604094968E9, 0.0, 2022-10-29 14:36:00.409
86.0, -2348.7282302724198, 3164.8117996035144, -7010.199373443611, -11555.883213986643, 0.0, 0.0, 0.9920000471174717, 0.0, 0.0, 0.0, 0.0, 0.0, 1.6670469604230845E9, 0.0, 2022-10-29 14:36:00.423
86.0, -2152.596656896174, 3341.6193099087104, -6785.648300304078, -11689.758542750496, 0.0, 0.0, 0.9920000471174717, 0.0, 0.0, 0.0, 0.0, 0.0, 1.6670469604230845E9, 0.0, 2022-10-29 14:36:00.423
87.0, -2074.4720167717896, 3322.654277233407, -6939.0833058361895, -11733.651878580451, 0.0, 0.0, 0.9920000471174717, 0.0, 0.0, 0.0, 0.0, 0.0, 1.6670469604387352E9, 0.0, 2022-10-29 14:36:00.438
87.0, -2313.9340710346587, 3147.5409416081384, -6968.467699788045, -11948.359535036609, 0.0, 0.0, 0.9920000471174717, 0.0, 0.0, 0.0, 0.0, 0.0, 1.6670469604387352E9, 0.0, 2022-10-29 14:36:00.438
88.0, -2334.097741645761, 3187.0529846400023, -7006.010685493238, -12013.87884236034, 0.0, 0.0, 0.9920000471174717, 0.0, 0.0, 0.0, 0.0, 0.0, 1.6670469604394903E9, 0.0, 2022-10-29 14:36:00.439
88.0, -2143.3030055062845, 3343.4743002867326, -6770.281051386148, -12145.35315535264, 0.0, 0.0, 0.9920000471174717, 0.0, 0.0, 0.0, 0.0, 0.0, 1.6670469604394903E9, 0.0, 2022-10-29 14:36:00.439
89.0, -2089.35307869548, 3305.151545440778, -6938.619558241684, -12241.683628461324, 0.0, 0.0, 0.9920000471174717, 0.0, 0.0, 0.0, 0.0, 0.0, 1.6670469604530554E9, 0.0, 2022-10-29 14:36:00.453
89.0, -2307.939011405688, 3166.7415879806504, -6949.8055990091525, -12470.008260656148, 0.0, 0.0, 0.9920000471174717, 0.0, 0.0, 0.0, 0.0, 0.0, 1.6670469604530554E9, 0.0, 2022-10-29 14:36:00.453
90.0, -2335.9826512234285, 3191.290291289799, -6991.799065661617, -12515.081534922123, 0.0, 0.0, 0.9920000471174717, 0.0, 0.0, 0.0, 0.0, 0.0, 1.6670469604688249E9, 0.0, 2022-10-29 14:36:00.468
90.0, -2152.6265760958195, 3339.827897829935, -6768.2577655101195, -12610.551831040997, 0.0, 0.0, 0.9920000471174717, 0.0, 0.0, 0.0, 0.0, 0.0, 1.6670469604688249E9, 0.0, 2022-10-29 14:36:00.468
91.0, -2109.6046369555406, 3293.7710298756137, -6953.227607468609, -12701.627744711936, 0.0, 0.0, 0.9920000471174717, 0.0, 0.0, 0.0, 0.0, 0.0, 1.6670469604695036E9, 0.0, 2022-10-29 14:36:00.469
91.0, -2312.905598546844, 3161.838579138741, -6970.060897169169, -12467.67269313382, 0.0, 0.0, 0.9920000471174717, 0.0, 0.0, 0.0, 0.0, 0.0, 1.6670469604695036E9, 0.0, 2022-10-29 14:36:00.469
92.0, -2342.635933244601, 3187.4568938352168, -6979.356418509036, -12491.787568048108, 0.01600000075995922, 0.0, 0.9920000471174717, 0.0, 0.0, 0.0, 0.0, 0.0, 1.6670469604830449E9, 0.0, 2022-10-29 14:36:00.483
92.0, -2175.2155718281865, 3324.195116015151, -6788.733717767522, -12639.709961045533, 0.01600000075995922, 0.0, 0.9920000471174717, 0.0, 0.0, 0.0, 0.0, 0.0, 1.6670469604830449E9, 0.0, 2022-10-29 14:36:00.483
93.0, -2120.454086726997, 3287.1775862537324, -6944.782913368661, -12694.460226446856, 0.01600000075995922, 0.0, 0.9920000471174717, 0.0, 0.0, 0.0, 0.0, 0.0, 1.667046960498512E9, 0.0, 2022-10-29 14:36:00.498
93.0, -2307.4378648116253, 3164.247074710205, -6984.433332698885, -12514.195178632624, 0.01600000075995922, 0.0, 0.9920000471174717, 0.0, 0.0, 0.0, 0.0, 0.0, 1.667046960498512E9, 0.0, 2022-10-29 14:36:00.498
94.0, -2328.4691922124475, 3192.9508068701252, -6966.661328109447, -12468.368314525578, 0.01600000075995922, 0.0, 0.9920000471174717, 0.0, 0.0, 0.0, 0.0, 0.0, 1.667046960513744E9, 0.0, 2022-10-29 14:36:00.513
94.0, -2174.101081641391, 3322.459802435711, -6796.480920525733, -12644.30255819112, 0.01600000075995922, 0.0, 0.9920000471174717, 0.0, 0.0, 0.0, 0.0, 0.0, 1.667046960513744E9, 0.0, 2022-10-29 14:36:00.513
95.0, -2110.9697004393674, 3286.6689598597586, -6944.867061117664, -12708.129560784902, 0.01600000075995922, 0.0, 0.9920000471174717, 0.0, 0.0, 0.0, 0.0, 0.0, 1.6670469605144827E9, 0.0, 2022-10-29 14:36:00.514
95.0, -2292.122974493075, 3181.7198873031884, -6975.997988348827, -12493.883781973273, 0.01600000075995922, 0.0, 0.9920000471174717, 0.0, 0.0, 0.0, 0.0, 0.0, 1.6670469605144827E9, 0.0, 2022-10-29 14:36:00.514
96.0, -2302.7050214176998, 3217.5967475781217, -6965.612286171876, -12456.112662370782, 0.01600000075995922, 0.0, 0.9920000471174717, 0.0, 0.0, 0.0, 0.0, 0.0, 1.6670469605287113E9, 0.0, 2022-10-29 14:36:00.528
96.0, -2171.41209357325, 3327.9424957707524, -6786.833848590031, -12632.604151129723, 0.01600000075995922, 0.0, 0.9920000471174717, 0.0, 0.0, 0.0, 0.0, 0.0, 1.6670469605287113E9, 0.0, 2022-10-29 14:36:00.528
97.0, -2115.221966688987, 3294.818201863207, -6940.9046371146105, -12699.733485384379, 0.01600000075995922, 0.0, 0.9920000471174717, 0.0, 0.0, 0.0, 0.0, 0.0, 1.667046960529486E9, 0.0, 2022-10-29 14:36:00.529
97.0, -2291.001004506368, 3181.532892305404, -6959.106730198953, -12488.513285636902, 0.01600000075995922, 0.0, 0.9920000471174717, 0.0, 0.0, 0.0, 0.0, 0.0, 1.667046960529486E9, 0.0, 2022-10-29 14:36:00.529
98.0, -2333.155286856927, 3196.1072824327275, -6970.305860616267, -12472.456025177147, 0.01600000075995922, 0.0, 0.9920000471174717, 0.0, 0.0, 0.0, 0.0, 0.0, 1.6670469605430508E9, 0.0, 2022-10-29 14:36:00.543
98.0, -2185.605013905093, 3313.4690829422325, -6788.539242969826, -12620.367198474705, 0.01600000075995922, 0.0, 0.9920000471174717, 0.0, 0.0, 0.0, 0.0, 0.0, 1.6670469605430508E9, 0.0, 2022-10-29 14:36:00.543
99.0, -2114.0102391033433, 3285.797563170083, -6953.489400465507, -12730.198710423429, 0.01600000075995922, 0.0, 0.9920000471174717, 0.0, 0.0, 0.0, 0.0, 0.0, 1.6670469605585036E9, 0.0, 2022-10-29 14:36:00.558
99.0, -2297.2840364319272, 3175.5789715759456, -6970.9958721580915, -12488.771338733844, 0.01600000075995922, 0.0, 0.9920000471174717, 0.0, 0.0, 0.0, 0.0, 0.0, 1.6670469605585036E9, 0.0, 2022-10-29 14:36:00.558
100.0, -2328.211139115505, 3207.4803181979805, -6974.718942563981, -12501.524397582747, 0.01600000075995922, 0.0, 1.008000047877431, 0.0, 0.0, 0.0, 0.0, 0.0, 1.6670469605744069E9, 0.0, 2022-10-29 14:36:00.574
100.0, -2185.1300466107205, 3315.944896712899, -6788.621520768851, -12639.569714797195, 0.01600000075995922, 0.0, 1.008000047877431, 0.0, 0.0, 0.0, 0.0, 0.0, 1.6670469605744069E9, 0.0, 2022-10-29 14:36:00.574
0.0, 2165.8807815387845, 2210.196726063732, 2618.666729274206, 2107.9085923256353, 0.01600000075995922, 0.0, 1.008000047877431, 0.0, 0.0, 0.0, 0.0, 0.0, 1.6670469605751605E9, 0.0, 2022-10-29 14:36:00.575
1.0, 1994.1109164739028, 2102.147276443895, 2617.690615385771, 1871.2664226293564, 0.01600000075995922, 0.0, 1.008000047877431, 0.0, 0.0, 0.0, 0.0, 0.0, 1.6670469605758817E9, 0.0, 2022-10-29 14:36:00.575
1.0, 1969.3284694175236, 2138.869354108814, 2603.7763176006265, 1870.3651067400351, 0.01600000075995922, 0.0, 1.008000047877431, 0.0, 0.0, 0.0, 0.0, 0.0, 1.6670469605758817E9, 0.0, 2022-10-29 14:36:00.575
2.0, 2119.5452910377644, 2254.3425051406957, 2800.6633507679217, 1734.9003204950131, 0.01600000075995922, 0.0, 1.008000047877431, 0.0, 0.0, 0.0, 0.0, 0.0, 1.6670469605880768E9, 0.0, 2022-10-29 14:36:00.588
2.0, 2169.7066991934553, 2215.694378998596, 2618.8125853724778, 1611.0591433122754, 0.01600000075995922, 0.0, 1.008000047877431, 0.0, 0.0, 0.0, 0.0, 0.0, 1.6670469605880768E9, 0.0, 2022-10-29 14:36:00.588
3.0, 2005.0538637442514, 2106.0966107971035, 2630.931731178891, 1379.7762502525002, 0.01600000075995922, 0.0, 1.008000047877431, 0.0, 0.0, 0.0, 0.0, 0.0, 1.667046960603706E9, 0.0, 2022-10-29 14:36:00.603
3.0, 1976.0677691376768, 2133.252024375368, 2601.58660617657, 1335.0395669825375, 0.01600000075995922, 0.0, 1.008000047877431, 0.0, 0.0, 0.0, 0.0, 0.0, 1.667046960603706E9, 0.0, 2022-10-29 14:36:00.603
4.0, 2131.20255919965, 2260.913509362843, 2811.406213390641, 1249.259351648856, 0.01600000075995922, 0.0, 1.008000047877431, 0.0, 0.0, 0.0, 0.0, 0.0, 1.667046960604458E9, 0.0, 2022-10-29 14:36:00.604
4.0, 2153.718626882881, 2189.45150100952, 2616.929545744788, 1137.6700867209584, 0.01600000075995922, 0.0, 1.008000047877431, 0.0, 0.0, 0.0, 0.0, 0.0, 1.667046960604458E9, 0.0, 2022-10-29 14:36:00.604
5.0, 1990.0157260224223, 2109.877649652306, 2618.8387646721676, 897.6133883651346, 0.01600000075995922, 0.0, 1.008000047877431, 0.0, 0.0, 0.0, 0.0, 0.0, 1.6670469606180525E9, 0.0, 2022-10-29 14:36:00.618
5.0, 1963.4904855866916, 2130.5069378078915, 2607.2955634589307, 891.4500332381576, 0.01600000075995922, 0.0, 1.008000047877431, 0.0, 0.0, 0.0, 0.0, 0.0, 1.6670469606180525E9, 0.0, 2022-10-29 14:36:00.618
6.0, 2121.8864684100263, 2257.282066505868, 2805.528960610274, 735.9094640309922, 0.01600000075995922, 0.0, 1.008000047877431, 0.0, 0.0, 0.0, 0.0, 0.0, 1.6670469606337893E9, 0.0, 2022-10-29 14:36:00.633
6.0, 2164.646614553407, 2204.0670300363563, 2626.8832894768566, 653.6522344555706, 0.01600000075995922, 0.0, 1.008000047877431, 0.0, 0.0, 0.0, 0.0, 0.0, 1.6670469606337893E9, 0.0, 2022-10-29 14:36:00.633
7.0, 1996.5605509448797, 2109.4101621578448, 2618.44607517682, 874.3231613910757, 0.01600000075995922, 0.0, 1.008000047877431, 0.0, 0.0, 0.0, 0.0, 0.0, 1.6670469606344726E9, 0.0, 2022-10-29 14:36:00.634
7.0, 1983.0576421548612, 2142.250223668758, 2611.4468524097465, 871.3125419267453, 0.01600000075995922, 0.0, 1.008000047877431, 0.0, 0.0, 0.0, 0.0, 0.0, 1.6670469606344726E9, 0.0, 2022-10-29 14:36:00.634
8.0, 2133.1248677768745, 2268.8570568687283, 2795.8388798250817, 731.8946814285591, 0.01600000075995922, 0.0, 1.008000047877431, 0.0, 0.0, 0.0, 0.0, 0.0, 1.667046960648077E9, 0.0, 2022-10-29 14:36:00.648
8.0, 2163.95847296156, 2209.2505313749425, 2629.763012442738, 653.9383368021809, 0.01600000075995922, 0.0, 1.008000047877431, 0.0, 0.0, 0.0, 0.0, 0.0, 1.667046960648077E9, 0.0, 2022-10-29 14:36:00.648
9.0, 1994.6532019674778, 2108.4452679692768, 2610.3865907723084, 870.2934191888198, 0.01600000075995922, 0.0, 1.008000047877431, 0.0, 0.0, 0.0, 0.0, 0.0, 1.6670469606637025E9, 0.0, 2022-10-29 14:36:00.663
9.0, 1995.0047525633126, 2158.3168338784017, 2632.680134408176, 885.5166819584556, 0.01600000075995922, 0.0, 1.008000047877431, 0.0, 0.0, 0.0, 0.0, 0.0, 1.6670469606637025E9, 0.0, 2022-10-29 14:36:00.663
10.0, 2147.5477919559926, 2280.9481534254737, 2802.385574697517, 731.9358203280717, 0.01600000075995922, 0.0, 1.008000047877431, 0.0, 0.0, 0.0, 0.0, 0.0, 1.6670469606644635E9, 0.0, 2022-10-29 14:36:00.664
10.0, 2169.9554025405087, 2215.7990961973555, 2636.0254749185406, 665.442269065883, 0.01600000075995922, 0.0, 1.008000047877431, 0.0, 0.0, 0.0, 0.0, 0.0, 1.6670469606644635E9, 0.0, 2022-10-29 14:36:00.664
11.0, 1989.3930326798, 2103.5534788272344, 2615.9796111560427, 892.7776977224275, 0.01600000075995922, 0.0, 1.008000047877431, 0.0, 0.0, 0.0, 0.0, 0.0, 1.6670469606780412E9, 0.0, 2022-10-29 14:36:00.678
11.0, 1992.792601739522, 2151.0464683645405, 2629.5030893958174, 893.0525803691708, 0.01600000075995922, 0.0, 1.008000047877431, 0.0, 0.0, 0.0, 0.0, 0.0, 1.6670469606780412E9, 0.0, 2022-10-29 14:36:00.678
12.0, 2154.042128229048, 2301.050115687307, 2818.9028428518213, 747.3629076452926, 0.01600000075995922, 0.0, 1.008000047877431, 0.0, 0.0, 0.0, 0.0, 0.0, 1.667046960693725E9, 0.0, 2022-10-29 14:36:00.693
12.0, 2173.4802582487464, 2221.547322429251, 2638.82852993533, 679.0031463052146, 0.01600000075995922, 0.0, 1.008000047877431, 0.0, 0.0, 0.0, 0.0, 0.0, 1.667046960693725E9, 0.0, 2022-10-29 14:36:00.693
13.0, 1993.9014820763841, 2104.391216417309, 2616.9538550945, 900.1901794346049, 0.01600000075995922, 0.0, 1.008000047877431, 0.0, 0.0, 0.0, 0.0, 0.0, 1.66704696069444E9, 0.0, 2022-10-29 14:36:00.694
13.0, 1989.090100783389, 2158.7992809726857, 2621.501573440619, 893.2526650168002, 0.01600000075995922, 0.0, 1.008000047877431, 0.0, 0.0, 0.0, 0.0, 0.0, 1.66704696069444E9, 0.0, 2022-10-29 14:36:00.694
14.0, 2147.564621505793, 2288.9440595307387, 2812.236471180804, 744.2905798316933, 0.01600000075995922, 0.0, 1.008000047877431, 0.0, 0.0, 0.0, 0.0, 0.0, 1.667046960708064E9, 0.0, 2022-10-29 14:36:00.708
14.0, 2167.5113779194653, 2214.662166610826, 2630.16879158793, 669.3411147696897, 0.01600000075995922, 0.0, 1.008000047877431, 0.0, 0.0, 0.0, 0.0, 0.0, 1.667046960708064E9, 0.0, 2022-10-29 14:36:00.708
15.0, 1988.0672381455079, 2102.7307008369826, 2618.679818924051, 444.5806072326377, 0.01600000075995922, 0.0, 1.008000047877431, 0.0, 0.0, 0.0, 0.0, 0.0, 1.667046960723703E9, 0.0, 2022-10-29 14:36:00.723
15.0, 1979.7702700938098, 2144.333347944077, 2604.1035588467494, 377.23248883057386, 0.01600000075995922, 0.0, 1.008000047877431, 0.0, 0.0, 0.0, 0.0, 0.0, 1.667046960723703E9, 0.0, 2022-10-29 14:36:00.723
16.0, 2150.6388192693703, 2290.7579110092483, 2812.079395382665, 250.66492458013818, 0.01600000075995922, 0.0, 1.008000047877431, 0.0, 0.0, 0.0, 0.0, 0.0, 1.667046960724433E9, 0.0, 2022-10-29 14:36:00.724
16.0, 2168.0387038132176, 2217.1118010818027, 2613.6047746841796, 166.4105884283781, 0.01600000075995922, 0.0, 1.008000047877431, 0.0, 0.0, 0.0, 0.0, 0.0, 1.667046960724433E9, 0.0, 2022-10-29 14:36:00.724
17.0, 1987.1509626563638, 2105.7375804013573, 2628.218433761038, -49.98376290779561, 0.01600000075995922, 0.0, 1.008000047877431, 0.0, 0.0, 0.0, 0.0, 0.0, 1.6670469607380972E9, 0.0, 2022-10-29 14:36:00.738
17.0, 1967.4697391395457, 2134.0187038662843, 2585.764959414024, -106.76292403507978, 0.01600000075995922, 0.0, 1.008000047877431, 0.0, 0.0, 0.0, 0.0, 0.0, 1.6670469607380972E9, 0.0, 2022-10-29 14:36:00.738
18.0, 2139.1685461052693, 2288.8991807312705, 2799.7246358790435, -256.38697151234373, 0.01600000075995922, 0.0, 1.008000047877431, 0.0, 0.0, 0.0, 0.0, 0.0, 1.667046960753773E9, 0.0, 2022-10-29 14:36:00.753
18.0, 2135.290269851219, 2185.9472147510387, 2609.234701585956, -331.09708297718316, 0.01600000075995922, 0.0, 1.008000047877431, 0.0, 0.0, 0.0, 0.0, 0.0, 1.667046960753773E9, 0.0, 2022-10-29 14:36:00.753
19.0, 1957.469246658031, 2079.954710106831, 2612.0863753021695, -558.8308109790087, 0.01600000075995922, 0.0, 1.008000047877431, 0.0, 0.0, 0.0, 0.0, 0.0, 1.6670469607545133E9, 0.0, 2022-10-29 14:36:00.754
19.0, 1951.509716078639, 2129.5196042195894, 2596.967829731293, -595.1265400489792, 0.01600000075995922, 0.0, 1.008000047877431, 0.0, 0.0, 0.0, 0.0, 0.0, 1.6670469607545133E9, 0.0, 2022-10-29 14:36:00.754
20.0, 2133.022020528093, 2285.7053061691113, 2797.138495059684, -766.2250930718146, 0.01600000075995922, 0.0, 0.9920000471174717, 0.0, 0.0, 0.0, 0.0, 0.0, 1.6670469607680469E9, 0.0, 2022-10-29 14:36:00.768
20.0, 2124.375371830538, 2186.87470994005, 2624.970330649521, -804.8040310647339, 0.01600000075995922, 0.0, 0.9920000471174717, 0.0, 0.0, 0.0, 0.0, 0.0, 1.6670469607680469E9, 0.0, 2022-10-29 14:36:00.768
21.0, 1950.9973497847095, 2074.63657236984, 2593.7421660195105, -578.4895950960927, 0.01600000075995922, 0.0, 0.9920000471174717, 0.0, 0.0, 0.0, 0.0, 0.0, 1.6670469607837656E9, 0.0, 2022-10-29 14:36:00.783
21.0, 1961.050200865604, 2138.1924322168343, 2611.7123853066005, -583.3813842381351, 0.01600000075995922, 0.0, 0.9920000471174717, 0.0, 0.0, 0.0, 0.0, 0.0, 1.6670469607837656E9, 0.0, 2022-10-29 14:36:00.783
22.0, 2147.832024352625, 2295.7132784505375, 2800.2931006723084, -756.6116802357137, 0.01600000075995922, 0.0, 0.9920000471174717, 0.0, 0.0, 0.0, 0.0, 0.0, 1.6670469607844825E9, 0.0, 2022-10-29 14:36:00.784
22.0, 2133.081858927384, 2183.4751408803277, 2624.837564201094, -782.6095947776921, 0.01600000075995922, 0.0, 0.9920000471174717, 0.0, 0.0, 0.0, 0.0, 0.0, 1.6670469607844825E9, 0.0, 2022-10-29 14:36:00.784
23.0, 1962.280627951026, 2078.339073325973, 2610.5548862703145, -589.5877482146025, 0.01600000075995922, 0.0, 0.9920000471174717, 0.0, 0.0, 0.0, 0.0, 0.0, 1.6670469607980447E9, 0.0, 2022-10-29 14:36:00.798
23.0, 1985.9242754708976, 2153.417564936448, 2613.442089036107, -584.6753896228038, 0.01600000075995922, 0.0, 0.9920000471174717, 0.0, 0.0, 0.0, 0.0, 0.0, 1.6670469607980447E9, 0.0, 2022-10-29 14:36:00.798
24.0, 2157.140635342337, 2306.92175861774, 2804.689353070222, -764.6973439399153, 0.01600000075995922, 0.0, 0.9920000471174717, 0.0, 0.0, 0.0, 0.0, 0.0, 1.667046960813786E9, 0.0, 2022-10-29 14:36:00.813
24.0, 2143.5947177028283, 2199.0967029952444, 2624.3532471568324, -778.6340811247937, 0.01600000075995922, 0.0, 0.9920000471174717, 0.0, 0.0, 0.0, 0.0, 0.0, 1.667046960813786E9, 0.0, 2022-10-29 14:36:00.813
25.0, 1968.4963416773826, 2089.9103237888776, 2610.5081375208683, -569.6802607504651, 0.01600000075995922, 0.0, 0.9920000471174717, 0.0, 0.0, 0.0, 0.0, 0.0, 1.667046960814605E9, 0.0, 2022-10-29 14:36:00.814
25.0, 2002.2713781772181, 2181.37331710523, 2621.7315772878937, -588.0095104333013, 0.01600000075995922, 0.0, 0.9920000471174717, 0.0, 0.0, 0.0, 0.0, 0.0, 1.667046960814605E9, 0.0, 2022-10-29 14:36:00.814
26.0, 2184.34092772007, 2330.15027724253, 2821.726467318367, -757.9449545699172, 0.01600000075995922, 0.0, 0.9920000471174717, 0.0, 0.0, 0.0, 0.0, 0.0, 1.6670469608280137E9, 0.0, 2022-10-29 14:36:00.828
26.0, 2157.623082436621, 2213.259704127442, 2635.9151478698477, -779.6382442628965, 0.01600000075995922, 0.0, 0.9920000471174717, 0.0, 0.0, 0.0, 0.0, 0.0, 1.6670469608280137E9, 0.0, 2022-10-29 14:36:00.828
27.0, 1960.7173497695476, 2092.498334558215, 2609.945282577537, -563.2943815761246, 0.01600000075995922, 0.0, 0.9920000471174717, 0.0, 0.0, 0.0, 0.0, 0.0, 1.6670469608437564E9, 0.0, 2022-10-29 14:36:00.843
27.0, 1996.8036444419995, 2181.8482843996026, 2620.5030201524496, -599.6088101458736, 0.01600000075995922, 0.0, 0.9920000471174717, 0.0, 0.0, 0.0, 0.0, 0.0, 1.6670469608437564E9, 0.0, 2022-10-29 14:36:00.843
28.0, 2187.1533324867487, 2342.368530397769, 2832.016802046448, -733.7795910062268, 0.01600000075995922, 0.0, 0.9920000471174717, 0.0, 0.0, 0.0, 0.0, 0.0, 1.6670469608444903E9, 0.0, 2022-10-29 14:36:00.844
28.0, 2155.308084364049, 2215.8327552969567, 2621.5782413897105, -789.4760510963388, 0.01600000075995922, 0.0, 0.9920000471174717, 0.0, 0.0, 0.0, 0.0, 0.0, 1.6670469608444903E9, 0.0, 2022-10-29 14:36:00.844
29.0, 1966.5964724998921, 2088.455502706114, 2620.4338320032693, -546.5527194244787, 0.01600000075995922, 0.0, 0.9920000471174717, 0.0, 0.0, 0.0, 0.0, 0.0, 1.6670469608580747E9, 0.0, 2022-10-29 14:36:00.858
29.0, 1985.7298006732017, 2162.5017819288187, 2591.0026893019676, -615.3219998097047, 0.01600000075995922, 0.0, 0.9920000471174717, 0.0, 0.0, 0.0, 0.0, 0.0, 1.6670469608580747E9, 0.0, 2022-10-29 14:36:00.858
30.0, 2178.3009892916307, 2325.5502002970316, 2827.315747802146, -738.0337272058241, 0.01600000075995922, 0.0, 0.9920000471174717, 0.0, 0.0, 0.0, 0.0, 0.0, 1.6670469608737583E9, 0.0, 2022-10-29 14:36:00.873
30.0, 2155.143528765999, 2204.2091462346725, 2618.56762192538, -787.5219533694908, 0.01600000075995922, 0.0, 0.9920000471174717, 0.0, 0.0, 0.0, 0.0, 0.0, 1.6670469608737583E9, 0.0, 2022-10-29 14:36:00.873
31.0, 1962.0375344539061, 2081.742382285651, 2614.782843170222, -1003.2618222134188, 0.01600000075995922, -0.01600000075995922, 0.9920000471174717, 0.0, 0.0, 0.0, 0.0, 0.0, 1.6670469608744817E9, 0.0, 2022-10-29 14:36:00.874
31.0, 1973.27967372071, 2135.327668850776, 2604.4289301428944, -1078.228116825223, 0.01600000075995922, -0.01600000075995922, 0.9920000471174717, 0.0, 0.0, 0.0, 0.0, 0.0, 1.6670469608744817E9, 0.0, 2022-10-29 14:36:00.874
32.0, 2145.386129781604, 2285.903520866763, 2822.394039460458, -1211.5648999954574, 0.01600000075995922, -0.01600000075995922, 0.9920000471174717, 0.0, 0.0, 0.0, 0.0, 0.0, 1.6670469608880568E9, 0.0, 2022-10-29 14:36:00.888
32.0, 2125.5497004166245, 2185.3937095575966, 2615.9085530568846, -1263.4092631312087, 0.01600000075995922, -0.01600000075995922, 0.9920000471174717, 0.0, 0.0, 0.0, 0.0, 0.0, 1.6670469608880568E9, 0.0, 2022-10-29 14:36:00.888
33.0, 1966.4693159013987, 2096.3878305121325, 2603.0058982097544, -1042.757035695482, 0.01600000075995922, -0.01600000075995922, 0.9920000471174717, 0.0, 0.0, 0.0, 0.0, 0.0, 1.6670469609037476E9, 0.0, 2022-10-29 14:36:00.903
33.0, 1982.3713705129921, 2158.339273278136, 2598.5049286130816, -1062.0698790666647, 0.01600000075995922, -0.01600000075995922, 0.9920000471174717, 0.0, 0.0, 0.0, 0.0, 0.0, 1.6670469609037476E9, 0.0, 2022-10-29 14:36:00.903
34.0, 2160.095156307332, 2314.0350483334623, 2809.899033708498, -1225.4006598815322, 0.01600000075995922, -0.01600000075995922, 0.9920000471174717, 0.0, 0.0, 0.0, 0.0, 0.0, 1.6670469609044974E9, 0.0, 2022-10-29 14:36:00.904
34.0, 2124.9700159234926, 2189.8591501046903, 2605.171300284099, -1262.1545266960748, 0.01600000075995922, -0.01600000075995922, 0.9920000471174717, 0.0, 0.0, 0.0, 0.0, 0.0, 1.6670469609044974E9, 0.0, 2022-10-29 14:36:00.904
35.0, 1961.7458222573623, 2094.0616127396934, 2591.4645669464953, -1056.5329571822658, 0.01600000075995922, -0.01600000075995922, 0.9920000471174717, 0.0, 0.0, 0.0, 0.0, 0.0, 1.6670469609180484E9, 0.0, 2022-10-29 14:36:00.918
35.0, 1981.6420900216326, 2157.8830054835416, 2611.1813195128925, -1066.866300759837, 0.01600000075995922, -0.01600000075995922, 0.9920000471174717, 0.0, 0.0, 0.0, 0.0, 0.0, 1.6670469609180484E9, 0.0, 2022-10-29 14:36:00.918
36.0, 2155.0724706668407, 2314.8316470240243, 2804.3695916240104, -1245.5531107927673, 0.01600000075995922, -0.01600000075995922, 0.9920000471174717, 0.0, 0.0, 0.0, 0.0, 0.0, 1.6670469609338136E9, 0.0, 2022-10-29 14:36:00.933
36.0, 2115.235056338832, 2180.4233825164847, 2611.1308308634907, -1279.5618910398334, 0.01600000075995922, -0.01600000075995922, 0.9920000471174717, 0.0, 0.0, 0.0, 0.0, 0.0, 1.6670469609338136E9, 0.0, 2022-10-29 14:36:00.933
37.0, 1953.9144717501476, 2090.1758566857316, 2588.620373030193, -1080.3804292497225, 0.01600000075995922, -0.01600000075995922, 0.9920000471174717, 0.0, 0.0, 0.0, 0.0, 0.0, 1.667046960934543E9, 0.0, 2022-10-29 14:36:00.934
37.0, 1988.5272458400577, 2167.8460989654996, 2619.0781182693318, -1052.7107794275507, 0.01600000075995922, -0.01600000075995922, 0.9920000471174717, 0.0, 0.0, 0.0, 0.0, 0.0, 1.667046960934543E9, 0.0, 2022-10-29 14:36:00.934
38.0, 2162.653247877024, 2326.159803989809, 2819.596594293602, -1243.0286783226766, 0.01600000075995922, -0.01600000075995922, 0.9920000471174717, 0.0, 0.0, 0.0, 0.0, 0.0, 1.6670469609480636E9, 0.0, 2022-10-29 14:36:00.948
38.0, 2120.75514867343, 2181.362097405363, 2614.9212194685824, -1299.3497017053887, 0.01600000075995922, -0.01600000075995922, 0.9920000471174717, 0.0, 0.0, 0.0, 0.0, 0.0, 1.6670469609480636E9, 0.0, 2022-10-29 14:36:00.948
39.0, 1968.2532481802627, 2098.7252679844387, 2589.3627431713976, -1064.7252080352046, 0.01600000075995922, -0.01600000075995922, 0.9920000471174717, 0.0, 0.0, 0.0, 0.0, 0.0, 1.6670469609637616E9, 0.0, 2022-10-29 14:36:00.963
39.0, 2003.7037598602474, 2195.8018511342816, 2625.1610655472614, -1078.301044874359, 0.01600000075995922, -0.01600000075995922, 0.9920000471174717, 0.0, 0.0, 0.0, 0.0, 0.0, 1.6670469609637616E9, 0.0, 2022-10-29 14:36:00.963
40.0, 2176.6367338113487, 2339.9001964270137, 2829.7784719229676, -1203.4549269415438, 0.01600000075995922, -0.01600000075995922, 0.9920000471174717, 0.0, 0.0, 0.0, 0.0, 0.0, 1.667046960964584E9, 0.0, 2022-10-29 14:36:00.964
40.0, 2123.0177881466225, 2186.740073541645, 2611.6618966571987, -1283.4794362434186, 0.01600000075995922, -0.01600000075995922, 0.9920000471174717, 0.0, 0.0, 0.0, 0.0, 0.0, 1.667046960964584E9, 0.0, 2022-10-29 14:36:00.964
41.0, 1964.8088003210723, 2104.645529614296, 2600.2888608919457, -1100.6562968594953, 0.01600000075995922, 0.0, 0.9920000471174717, 0.0, 0.0, 0.0, 0.0, 0.0, 1.6670469609946196E9, 0.0, 2022-10-29 14:36:00.994
41.0, 2014.2465378353372, 2193.8832824570127, 2635.657094772905, -1075.2754658102058, 0.01600000075995922, 0.0, 0.9920000471174717, 0.0, 0.0, 0.0, 0.0, 0.0, 1.6670469609946196E9, 0.0, 2022-10-29 14:36:00.994
42.0, 2172.204952363856, 2328.1344711664133, 2831.7587489495054, -1215.6993593964726, 0.01600000075995922, 0.0, 0.9920000471174717, 0.0, 0.0, 0.0, 0.0, 0.0, 1.66704696099519E9, 0.0, 2022-10-29 14:36:00.995
42.0, 2121.372232166119, 2186.728853841778, 2601.251885130536, -1296.3147728913464, 0.01600000075995922, 0.0, 0.9920000471174717, 0.0, 0.0, 0.0, 0.0, 0.0, 1.66704696099519E9, 0.0, 2022-10-29 14:36:00.995
43.0, 1976.787699879147, 2109.2904853592627, 2616.8865368952975, -1076.9752503400669, 0.01600000075995922, 0.0, 0.9920000471174717, 0.0, 0.0, 0.0, 0.0, 0.0, 1.6670469609959517E9, 0.0, 2022-10-29 14:36:00.995
43.0, 2000.319150400348, 2181.362097405363, 2612.6137011959217, -1087.9742961097509, 0.01600000075995922, 0.0, 0.9920000471174717, 0.0, 0.0, 0.0, 0.0, 0.0, 1.6670469609959517E9, 0.0, 2022-10-29 14:36:00.995
44.0, 2153.355856587179, 2317.498195692431, 2831.4576870030724, -1195.8236610819586, 0.01600000075995922, 0.0, 0.9920000471174717, 0.0, 0.0, 0.0, 0.0, 0.0, 1.6670469610080893E9, 0.0, 2022-10-29 14:36:01.008
44.0, 2112.422651572153, 2177.2182882544585, 2589.962997114286, -1310.296388875693, 0.01600000075995922, 0.0, 0.9920000471174717, 0.0, 0.0, 0.0, 0.0, 0.0, 1.6670469610080893E9, 0.0, 2022-10-29 14:36:01.008
45.0, 2072.9667070396245, 2204.1100388858467, 2694.177179329563, -1519.1473620012403, 0.01600000075995922, 0.0, 0.9920000471174717, 0.0, 0.0, 0.0, 0.0, 0.0, 1.6670469610237522E9, 0.0, 2022-10-29 14:36:01.023
45.0, 1907.825814646203, 2095.164883226622, 2560.316810165532, -1603.321290303953, 0.01600000075995922, 0.0, 0.9920000471174717, 0.0, 0.0, 0.0, 0.0, 0.0, 1.6670469610237522E9, 0.0, 2022-10-29 14:36:01.023
46.0, 2135.761497245636, 2295.0625358582474, 2319.899211463984, -1703.5150800668634, 0.01600000075995922, 0.0, 0.9920000471174717, 0.0, 0.0, 0.0, 0.0, 0.0, 1.6670469610244951E9, 0.0, 2022-10-29 14:36:01.024
46.0, 2062.006930219475, 2121.2656450173818, 2082.7839444233105, -1798.8731791870669, 0.01600000075995922, 0.0, 0.9920000471174717, 0.0, 0.0, 0.0, 0.0, 0.0, 1.6670469610244951E9, 0.0, 2022-10-29 14:36:01.024
47.0, 1944.9031828069128, 2074.494456171524, 2082.043444232084, -1619.9731948566623, 0.01600000075995922, 0.0, 0.9920000471174717, 0.0, 0.0, 0.0, 0.0, 0.0, 1.667046961038065E9, 0.0, 2022-10-29 14:36:01.038
47.0, 1973.6368341664784, 2149.9618973773904, 2123.395518042147, -1583.5334796383977, 0.01600000075995922, 0.0, 0.9920000471174717, 0.0, 0.0, 0.0, 0.0, 0.0, 1.667046961038065E9, 0.0, 2022-10-29 14:36:01.038
48.0, 2160.291501055006, 2318.3359332825057, 2335.4553253296763, -1702.011640284676, 0.01600000075995922, 0.0, 0.9920000471174717, 0.0, 0.0, 0.0, 0.0, 0.0, 1.6670469610537171E9, 0.0, 2022-10-29 14:36:01.053
48.0, 2082.438003677409, 2145.0888077351265, 2104.5557720153593, -1761.2684851326048, 0.01600000075995922, 0.0, 0.9920000471174717, 0.0, 0.0, 0.0, 0.0, 0.0, 1.6670469610537171E9, 0.0, 2022-10-29 14:36:01.053
49.0, 1951.3432905306108, 2090.1047985865735, 2078.3203738261946, -1622.400389927905, 0.01600000075995922, 0.0, 0.9920000471174717, 0.0, 0.0, 0.0, 0.0, 0.0, 1.6670469610544865E9, 0.0, 2022-10-29 14:36:01.054
49.0, 1998.3874920732342, 2178.7591270362027, 2137.968038219493, -1565.7577351490036, 0.01600000075995922, 0.0, 0.9920000471174717, 0.0, 0.0, 0.0, 0.0, 0.0, 1.6670469610544865E9, 0.0, 2022-10-29 14:36:01.054
50.0, 2164.2071763086133, 2321.9598963395692, 2322.5956793320365, -1732.5778426225297, 0.01600000075995922, 0.0, 1.008000047877431, 0.0, 0.0, 0.0, 0.0, 0.0, 1.6670469610681365E9, 0.0, 2022-10-29 14:36:01.068
50.0, 2112.181428025011, 2173.1417973027565, 2114.9096850426868, -1810.605245348066, 0.01600000075995922, 0.0, 1.008000047877431, 0.0, 0.0, 0.0, 0.0, 0.0, 1.6670469610681365E9, 0.0, 2022-10-29 14:36:01.068
51.0, 1978.8128557051532, 2106.8558104881085, 2095.136833976954, -1651.0255841887556, 0.01600000075995922, 0.0, 1.008000047877431, 0.0, 0.0, 0.0, 0.0, 0.0, 1.667046961083727E9, 0.0, 2022-10-29 14:36:01.083
51.0, 2026.0702315452509, 2203.7042597406544, 2153.535371785052, -1614.971078665927, 0.01600000075995922, 0.0, 1.008000047877431, 0.0, 0.0, 0.0, 0.0, 0.0, 1.667046961083727E9, 0.0, 2022-10-29 14:36:01.083
52.0, 2183.026352885645, 2338.1910621472634, 2348.2233437784016, -1750.9818903044797, 0.01600000075995922, 0.0, 1.008000047877431, 0.0, 0.0, 0.0, 0.0, 0.0, 1.6670469610845363E9, 0.0, 2022-10-29 14:36:01.084
52.0, 2129.0371571253054, 2185.835017752368, 2125.4169339681976, -1823.5565188946202, 0.01600000075995922, 0.0, 1.008000047877431, 0.0, 0.0, 0.0, 0.0, 0.0, 1.6670469610845363E9, 0.0, 2022-10-29 14:36:01.084
53.0, 2001.3494928381406, 2147.1494926107116, 2117.5631440612487, -1642.9474002844654, 0.01600000075995922, 0.0, 1.008000047877431, 0.0, 0.0, 0.0, 0.0, 0.0, 1.667046961098064E9, 0.0, 2022-10-29 14:36:01.098
53.0, 2034.028738650959, 2225.1600657864474, 2143.660165952053, -1633.0198358520865, 0.01600000075995922, 0.0, 1.008000047877431, 0.0, 0.0, 0.0, 0.0, 0.0, 1.667046961098064E9, 0.0, 2022-10-29 14:36:01.098
54.0, 2201.924067361746, 2360.5855830819346, 2350.9291613963433, -1745.9779041637667, 0.01600000075995922, 0.0, 1.008000047877431, 0.0, 0.0, 0.0, 0.0, 0.0, 1.6670469611300967E9, 0.0, 2022-10-29 14:36:01.130
54.0, 2155.104259816464, 2209.8750946675427, 2128.463082482107, -1834.2788120675832, 0.01600000075995922, 0.0, 1.008000047877431, 0.0, 0.0, 0.0, 0.0, 0.0, 1.6670469611300967E9, 0.0, 2022-10-29 14:36:01.130
55.0, 2024.499473563861, 2160.545814251993, 2143.854640749749, -1621.3532179403119, 0.01600000075995922, 0.0, 1.008000047877431, 0.0, 0.0, 0.0, 0.0, 0.0, 1.6670469611308298E9, 0.0, 2022-10-29 14:36:01.130
55.0, 2057.115141077433, 2245.329346247483, 2152.1347792516463, -1623.511140214745, 0.01600000075995922, 0.0, 1.008000047877431, 0.0, 0.0, 0.0, 0.0, 0.0, 1.6670469611308298E9, 0.0, 2022-10-29 14:36:01.130
56.0, 2233.5075224875472, 2389.528668839019, 2362.9716392536648, -1723.301020782441, 0.01600000075995922, 0.0, 1.008000047877431, 0.0, 0.0, 0.0, 0.0, 0.0, 1.6670469611316023E9, 0.0, 2022-10-29 14:36:01.131
56.0, 2212.7510777334683, 2275.940427384805, 2121.9706161590293, -1848.0098547548987, 0.01600000075995922, 0.0, 1.008000047877431, 0.0, 0.0, 0.0, 0.0, 0.0, 1.6670469611316023E9, 0.0, 2022-10-29 14:36:01.131
57.0, 2193.527991961222, 2319.5719702178612, 2264.5262527200393, -1986.5245294137858, 0.01600000075995922, 0.0, 1.008000047877431, 0.0, 0.0, 0.0, 0.0, 0.0, 1.6670469611323583E9, 0.0, 2022-10-29 14:36:01.132
57.0, 2434.8786957017146, 2134.553509559948, 2062.4388886643574, -2133.880327567924, 0.01600000075995922, 0.0, 1.008000047877431, 0.0, 0.0, 0.0, 0.0, 0.0, 1.6670469611323583E9, 0.0, 2022-10-29 14:36:01.132
58.0, 2674.8643359583803, 2338.606191042345, 1830.6679386603646, -2234.53786492534, 0.01600000075995922, 0.0, 1.008000047877431, 0.0, 0.0, 0.0, 0.0, 0.0, 1.6670469611431105E9, 0.0, 2022-10-29 14:36:01.143
58.0, 2603.338749305811, 2163.885544912424, 1597.3785892743617, -2330.9281764333136, 0.01600000075995922, 0.0, 1.008000047877431, 0.0, 0.0, 0.0, 0.0, 0.0, 1.6670469611431105E9, 0.0, 2022-10-29 14:36:01.143
59.0, 2506.9316082480364, 2135.1892925524153, 1628.4440682563, -2130.983775052242, 0.01600000075995922, 0.0, 1.008000047877431, 0.0, 0.0, 0.0, 0.0, 0.0, 1.66704696115809E9, 0.0, 2022-10-29 14:36:01.158
59.0, 2543.0740014198236, 2224.1577725983225, 1649.9671925012954, -2091.978488464374, 0.01600000075995922, 0.0, 1.008000047877431, 0.0, 0.0, 0.0, 0.0, 0.0, 1.66704696115809E9, 0.0, 2022-10-29 14:36:01.158
60.0, 2695.2467907168902, 2358.1733476105146, 1855.03712677164, -2234.5042058257386, 0.01600000075995922, 0.0, 0.9920000471174717, 0.0, 0.0, 0.0, 0.0, 0.0, 1.6670469611737869E9, 0.0, 2022-10-29 14:36:01.173
60.0, 2612.87549419282, 2176.0963182677515, 1619.2794434148818, -2284.8974877786823, 0.01600000075995922, 0.0, 0.9920000471174717, 0.0, 0.0, 0.0, 0.0, 0.0, 1.6670469611737869E9, 0.0, 2022-10-29 14:36:01.173
61.0, 2509.889869112987, 2138.704798510764, 1605.022944783792, -2115.2051371391863, 0.01600000075995922, 0.0, 0.9920000471174717, 0.0, 0.0, 0.0, 0.0, 0.0, 1.6670469611744828E9, 0.0, 2022-10-29 14:36:01.174
61.0, 2552.2928548105992, 2233.933871082496, 1663.8740104865283, -2057.5265300725587, 0.01600000075995922, 0.0, 0.9920000471174717, 0.0, 0.0, 0.0, 0.0, 0.0, 1.6670469611744828E9, 0.0, 2022-10-29 14:36:01.174
62.0, 2715.670384374913, 2363.319449949544, 1850.827869371511, -2250.140727540478, 0.01600000075995922, 0.0, 0.9920000471174717, 0.0, 0.0, 0.0, 0.0, 0.0, 1.6670469611880324E9, 0.0, 2022-10-29 14:36:01.188
62.0, 2620.703104800079, 2180.7487538126297, 1617.9723483803682, -2281.101489323657, 0.01600000075995922, 0.0, 0.9920000471174717, 0.0, 0.0, 0.0, 0.0, 0.0, 1.6670469611880324E9, 0.0, 2022-10-29 14:36:01.188
63.0, 2511.4531472944655, 2131.262397598941, 1614.8719713171013, -2127.0082613993436, 0.01600000075995922, 0.0, 0.9920000471174717, 0.0, 0.0, 0.0, 0.0, 0.0, 1.6670469612037766E9, 0.0, 2022-10-29 14:36:01.203
63.0, 2554.791107981, 2229.479650235269, 1668.5881543806754, -2067.362466956023, 0.01600000075995922, 0.0, 0.9920000471174717, 0.0, 0.0, 0.0, 0.0, 0.0, 1.6670469612037766E9, 0.0, 2022-10-29 14:36:01.203
64.0, 2708.1718849637546, 2357.313170620706, 1840.8516862397082, -2232.0957102542743, 0.01600000075995922, 0.0, 0.9920000471174717, 0.0, 0.0, 0.0, 0.0, 0.0, 1.6670469612045321E9, 0.0, 2022-10-29 14:36:01.204
64.0, 2617.5952479369007, 2175.5764721739106, 1607.9438066491857, -2267.0207659904845, 0.01600000075995922, 0.0, 0.9920000471174717, 0.0, 0.0, 0.0, 0.0, 0.0, 1.6670469612045321E9, 0.0, 2022-10-29 14:36:01.204
65.0, 2502.1183570050634, 2127.223305646796, 1603.5569040011615, -2100.410092914477, 0.01600000075995922, 0.0, 0.9920000471174717, 0.0, 0.0, 0.0, 0.0, 0.0, 1.6670469612180517E9, 0.0, 2022-10-29 14:36:01.218
65.0, 2541.622920237016, 2215.432586001698, 1637.657311797142, -2096.5785654098727, 0.01600000075995922, 0.0, 0.9920000471174717, 0.0, 0.0, 0.0, 0.0, 0.0, 1.6670469612180517E9, 0.0, 2022-10-29 14:36:01.218
66.0, 2702.9397649257444, 2352.922528072726, 1845.2778578372672, -2245.9482996901497, 0.01600000075995922, 0.0, 0.9920000471174717, 0.0, 0.0, 0.0, 0.0, 0.0, 1.6670469612337687E9, 0.0, 2022-10-29 14:36:01.233
66.0, 2625.164805447217, 2183.389123181347, 1608.1663306965493, -2353.21424026927, 0.01600000075995922, 0.0, 0.9920000471174717, 0.0, 0.0, 0.0, 0.0, 0.0, 1.6670469612337687E9, 0.0, 2022-10-29 14:36:01.233
67.0, 2511.5466447933577, 2142.5905545647256, 1629.986776988022, -2213.2690538773313, 0.01600000075995922, 0.0, 0.9920000471174717, 0.0, 0.0, 0.0, 0.0, 0.0, 1.667046961234541E9, 0.0, 2022-10-29 14:36:01.234
67.0, 2577.61197751062, 2250.333332388196, 1674.248492963612, -2254.336895290762, 0.01600000075995922, 0.0, 0.9920000471174717, 0.0, 0.0, 0.0, 0.0, 0.0, 1.667046961234541E9, 0.0, 2022-10-29 14:36:01.234
68.0, 2739.063458597753, 2380.2350174491294, 1879.7410359289497, -2394.14370538434, 0.01600000075995922, 0.0, 0.9920000471174717, 0.0, 0.0, 0.0, 0.0, 0.0, 1.667046961248017E9, 0.0, 2022-10-29 14:36:01.248
68.0, 2631.3692994737066, 2186.545598743949, 2112.7442829683423, -2434.9291843511164, 0.01600000075995922, 0.0, 0.9920000471174717, 0.0, 0.0, 0.0, 0.0, 0.0, 1.667046961248017E9, 0.0, 2022-10-29 14:36:01.248
69.0, 2474.6787110301666, 2091.6381575684063, 2118.7860913467593, -2197.6381420125253, 0.01600000075995922, 0.0, 0.9920000471174717, 0.0, 0.0, 0.0, 0.0, 0.0, 1.6670469612637575E9, 0.0, 2022-10-29 14:36:01.263
69.0, 2529.8085762769915, 2196.519911925774, 2125.4805122674443, -2230.519342422951, 0.01600000075995922, 0.0, 0.9920000471174717, 0.0, 0.0, 0.0, 0.0, 0.0, 1.6670469612637575E9, 0.0, 2022-10-29 14:36:01.263
70.0, 2770.5870753242634, 2412.551492966246, 1883.0097084902227, -2410.1074683452025, 0.01600000075995922, 0.0, 1.008000047877431, 0.0, 0.0, 0.0, 0.0, 0.0, 1.6670469612644868E9, 0.0, 2022-10-29 14:36:01.264
70.0, 2716.149091569241, 2259.8438979755156, 1677.2422828781419, -2397.836856590584, 0.01600000075995922, 0.0, 1.008000047877431, 0.0, 0.0, 0.0, 0.0, 0.0, 1.6670469612644868E9, 0.0, 2022-10-29 14:36:01.264
71.0, 2945.227313605137, 2074.973163365852, 1619.5842452612706, -2640.122535319999, 0.01600000075995922, -0.01600000075995922, 1.008000047877431, 0.0, 0.0, 0.0, 0.0, 0.0, 1.6670469612780669E9, 0.0, 2022-10-29 14:36:01.278
71.0, 2962.558009999804, 2140.2157180928625, 1621.2335411417298, -2712.194147366099, 0.01600000075995922, -0.01600000075995922, 1.008000047877431, 0.0, 0.0, 0.0, 0.0, 0.0, 1.6670469612780669E9, 0.0, 2022-10-29 14:36:01.278
72.0, 2749.42672137497, 1904.1438831398264, 1846.0838062777184, -2923.762157809455, 0.01600000075995922, -0.01600000075995922, 1.008000047877431, 0.0, 0.0, 0.0, 0.0, 0.0, 1.6670469612937613E9, 0.0, 2022-10-29 14:36:01.293
72.0, 2695.818995410111, 1751.9000357436016, 1689.2454917859286, -2848.9828581954353, 0.01600000075995922, -0.01600000075995922, 1.008000047877431, 0.0, 0.0, 0.0, 0.0, 0.0, 1.6670469612937613E9, 0.0, 2022-10-29 14:36:01.293
73.0, 2451.734424802009, 1587.5239528911188, 1601.35410292726, -2664.5889608301222, 0.01600000075995922, -0.01600000075995922, 1.008000047877431, 0.0, 0.0, 0.0, 0.0, 0.0, 1.6670469612944918E9, 0.0, 2022-10-29 14:36:01.294
73.0, 2504.8335243728943, 1679.8920019967481, 1634.1679851384833, -2692.200642202981, 0.01600000075995922, -0.01600000075995922, 1.008000047877431, 0.0, 0.0, 0.0, 0.0, 0.0, 1.6670469612944918E9, 0.0, 2022-10-29 14:36:01.294
74.0, 2270.2015509027988, 1916.545391392894, 1852.058296456933, -2448.744374787435, 0.01600000075995922, -0.01600000075995922, 1.008000047877431, 0.0, 0.0, 0.0, 0.0, 0.0, 1.6670469613080916E9, 0.0, 2022-10-29 14:36:01.308
74.0, 2222.861897263676, 1776.5908552510664, 1686.6069923671894, -2369.5332937259227, 0.01600000075995922, -0.01600000075995922, 1.008000047877431, 0.0, 0.0, 0.0, 0.0, 0.0, 1.6670469613080916E9, 0.0, 2022-10-29 14:36:01.308
75.0, 1984.207661391236, 1608.3925946438685, 1618.8026061705314, -2164.5774264042266, 0.01600000075995922, -0.01600000075995922, 1.008000047877431, 0.0, 0.0, 0.0, 0.0, 0.0, 1.6670469613237855E9, 0.0, 2022-10-29 14:36:01.323
75.0, 2031.3603200325742, 1705.2709630960599, 1647.2034064340405, -2184.511093168054, 0.01600000075995922, -0.01600000075995922, 1.008000047877431, 0.0, 0.0, 0.0, 0.0, 0.0, 1.6670469613237855E9, 0.0, 2022-10-29 14:36:01.323
76.0, 2263.783882578835, 1911.7882386492565, 1861.5557723944075, -2377.21504823491, 0.01600000075995922, -0.01600000075995922, 1.008000047877431, 0.0, 0.0, 0.0, 0.0, 0.0, 1.6670469613245292E9, 0.0, 2022-10-29 14:36:01.324
76.0, 2208.2127091372386, 1754.704960710369, 1671.7427599932998, -2354.573693903163, 0.01600000075995922, -0.01600000075995922, 1.008000047877431, 0.0, 0.0, 0.0, 0.0, 0.0, 1.6670469613245292E9, 0.0, 2022-10-29 14:36:01.324
77.0, 1994.6195428678766, 1618.2023522276431, 1631.8529870659113, -2109.5073995566927, 0.01600000075995922, -0.01600000075995922, 1.008000047877431, 0.0, 0.0, 0.0, 0.0, 0.0, 1.6670469613381E9, 0.0, 2022-10-29 14:36:01.338
77.0, 2033.9034520024434, 1703.5730485161766, 1645.8514326000586, -2169.0279073514976, 0.01600000075995922, -0.01600000075995922, 1.008000047877431, 0.0, 0.0, 0.0, 0.0, 0.0, 1.6670469613381E9, 0.0, 2022-10-29 14:36:01.338
78.0, 2256.7453908622265, 1905.643583022058, 1883.7240293817595, -2294.3164258170873, 0.01600000075995922, -0.01600000075995922, 1.008000047877431, 0.0, 0.0, 0.0, 0.0, 0.0, 1.6670469613537433E9, 0.0, 2022-10-29 14:36:01.353
78.0, 2212.225621789694, 1755.718473598361, 1671.6174733447842, -2326.458995986264, 0.01600000075995922, -0.01600000075995922, 1.008000047877431, 0.0, 0.0, 0.0, 0.0, 0.0, 1.6670469613537433E9, 0.0, 2022-10-29 14:36:01.353
79.0, 1996.616649444215, 1606.915334161371, 1645.8645222499035, -2525.459072628524, 0.01600000075995922, -0.01600000075995922, 1.008000047877431, 0.0, 0.0, 0.0, 0.0, 0.0, 1.667046961354493E9, 0.0, 2022-10-29 14:36:01.354
79.0, 2012.7617975529283, 1678.4970193132758, 1636.9317712057382, -2586.5540783046745, 0.01600000075995922, -0.01600000075995922, 1.008000047877431, 0.0, 0.0, 0.0, 0.0, 0.0, 1.667046961354493E9, 0.0, 2022-10-29 14:36:01.354
80.0, 2230.304298175499, 1873.1588120069355, 1880.1935638235882, -2724.5881758192554, 0.01600000075995922, -0.01600000075995922, 0.9920000471174717, 0.0, 0.0, 0.0, 0.0, 0.0, 1.6670469613680851E9, 0.0, 2022-10-29 14:36:01.368
80.0, 2160.674840800464, 1703.9320789119229, 1641.4364807023667, -2759.4197340565734, 0.01600000075995922, -0.01600000075995922, 0.9920000471174717, 0.0, 0.0, 0.0, 0.0, 0.0, 1.6670469613680851E9, 0.0, 2022-10-29 14:36:01.368
81.0, 1977.270146973431, 1586.4431218039244, 1622.2657535295002, -2989.610576329287, 0.01600000075995922, -0.01600000075995922, 0.9920000471174717, 0.0, 0.0, 0.0, 0.0, 0.0, 1.6670469613837807E9, 0.0, 2022-10-29 14:36:01.383
81.0, 2012.7917167525738, 1672.7375733815134, 1647.293164032977, -3005.086282345932, 0.01600000075995922, -0.01600000075995922, 0.9920000471174717, 0.0, 0.0, 0.0, 0.0, 0.0, 1.6670469613837807E9, 0.0, 2022-10-29 14:36:01.383
82.0, 2222.899296263233, 1862.8591275289655, 1873.8301240489818, -3166.3152393857017, 0.01600000075995922, -0.01600000075995922, 0.9920000471174717, 0.0, 0.0, 0.0, 0.0, 0.0, 1.6670469613845296E9, 0.0, 2022-10-29 14:36:01.384
82.0, 2156.7030670475215, 1693.7221520328894, 1644.0787200210616, -3207.508367447648, 0.01600000075995922, -0.01600000075995922, 0.9920000471174717, 0.0, 0.0, 0.0, 0.0, 0.0, 1.6670469613845296E9, 0.0, 2022-10-29 14:36:01.384
83.0, 1986.85925045982, 1585.7998590115458, 1615.6816596575081, -2973.788929566741, 0.01600000075995922, -0.01600000075995922, 0.9920000471174717, 0.0, 0.0, 0.0, 0.0, 0.0, 1.667046961398101E9, 0.0, 2022-10-29 14:36:01.398
83.0, 2033.2190503105521, 1688.2581581976265, 1661.8656842103228, -2986.5793874152005, 0.01600000075995922, -0.01600000075995922, 0.9920000471174717, 0.0, 0.0, 0.0, 0.0, 0.0, 1.667046961398101E9, 0.0, 2022-10-29 14:36:01.398
84.0, 2230.977480167523, 1862.3841602345929, 1870.813894734718, -3148.717140144203, 0.01600000075995922, -0.01600000075995922, 0.9920000471174717, 0.0, 0.0, 0.0, 0.0, 0.0, 1.667046961413766E9, 0.0, 2022-10-29 14:36:01.413
84.0, 2195.227776491083, 1719.7219365248457, 1645.3072771565057, -3180.6951547153294, 0.01600000075995922, -0.01600000075995922, 0.9920000471174717, 0.0, 0.0, 0.0, 0.0, 0.0, 1.667046961413766E9, 0.0, 2022-10-29 14:36:01.413
85.0, 2026.3114550923929, 1623.8795203603804, 1622.052579232026, -3000.923773695249, 0.01600000075995922, -0.01600000075995922, 0.9920000471174717, 0.0, 0.0, 0.0, 0.0, 0.0, 1.6670469614145567E9, 0.0, 2022-10-29 14:36:01.414
85.0, 2060.50162048731, 1714.9834832809865, 1653.5724560585804, -2980.2739160899073, 0.01600000075995922, -0.01600000075995922, 0.9920000471174717, 0.0, 0.0, 0.0, 0.0, 0.0, 1.6670469614145567E9, 0.0, 2022-10-29 14:36:01.414
86.0, 2240.312270456925, 1865.6453529959545, 1856.9482156489976, -3138.8924229606055, 0.01600000075995922, -0.01600000075995922, 0.9920000471174717, 0.0, 0.0, 0.0, 0.0, 0.0, 1.6670469614281163E9, 0.0, 2022-10-29 14:36:01.428
86.0, 2190.2163105504587, 1726.1059457492083, 1612.3681082967669, -3228.775308545679, 0.01600000075995922, -0.01600000075995922, 0.9920000471174717, 0.0, 0.0, 0.0, 0.0, 0.0, 1.6670469614281163E9, 0.0, 2022-10-29 14:36:01.428
87.0, 2070.9995196629316, 1677.5134256249294, 1619.7413210594095, -3473.289967648685, 0.01600000075995922, -0.01600000075995922, 0.9920000471174717, 0.0, 0.0, 0.0, 0.0, 0.0, 1.6670469614438405E9, 0.0, 2022-10-29 14:36:01.443
87.0, 2083.05321722012, 1740.306345880963, 1635.9014287679456, -3453.7695598299615, 0.01600000075995922, -0.01600000075995922, 0.9920000471174717, 0.0, 0.0, 0.0, 0.0, 0.0, 1.6670469614438405E9, 0.0, 2022-10-29 14:36:01.443
88.0, 2218.1608430193737, 1851.66186706163, 1845.5639601838775, -3617.5977473389357, 0.01600000075995922, -0.01600000075995922, 0.9920000471174717, 0.0, 0.0, 0.0, 0.0, 0.0, 1.66704696144454E9, 0.0, 2022-10-29 14:36:01.444
88.0, 2166.090215936303, 1693.3070231378078, 2086.1629440332763, -3732.99049052177, 0.01600000075995922, -0.01600000075995922, 0.9920000471174717, 0.0, 0.0, 0.0, 0.0, 0.0, 1.66704696144454E9, 0.0, 2022-10-29 14:36:01.444
89.0, 2055.759427343495, 1656.9514556685463, 2105.1223668586463, -3492.599071119912, 0.01600000075995922, -0.01600000075995922, 0.9920000471174717, 0.0, 0.0, 0.0, 0.0, 0.0, 1.6670469614580808E9, 0.0, 2022-10-29 14:36:01.458
89.0, 2049.1005354723893, 1695.004937717691, 2112.8863991666585, -3490.3345616967417, 0.01600000075995922, -0.01600000075995922, 0.9920000471174717, 0.0, 0.0, 0.0, 0.0, 0.0, 1.6670469614580808E9, 0.0, 2022-10-29 14:36:01.458
90.0, 2171.3653448238038, 1785.2973423479125, 2317.0587574476376, -3647.928335979581, 0.01600000075995922, -0.01600000075995922, 0.9920000471174717, 0.0, 0.0, 0.0, 0.0, 0.0, 1.6670469614737616E9, 0.0, 2022-10-29 14:36:01.473
90.0, 2120.345629628282, 1647.354872382246, 2076.012855553534, -3779.327850972768, 0.01600000075995922, -0.01600000075995922, 0.9920000471174717, 0.0, 0.0, 0.0, 0.0, 0.0, 1.6670469614737616E9, 0.0, 2022-10-29 14:36:01.473
91.0, 2037.6863608076237, 1635.2188970260322, 2124.9625361235812, -3982.6400322639383, 0.01600000075995922, 0.0, 0.9920000471174717, 0.0, 0.0, 0.0, 0.0, 0.0, 1.6670469614744651E9, 0.0, 2022-10-29 14:36:01.474
91.0, 2020.1892388649285, 1670.7479466050863, 2117.271431864705, -4011.022133027669, 0.01600000075995922, 0.0, 0.9920000471174717, 0.0, 0.0, 0.0, 0.0, 0.0, 1.6670469614744651E9, 0.0, 2022-10-29 14:36:01.474
92.0, 2124.7082229265943, 1747.5804512947798, 2308.3541403007694, -4128.385803487152, 0.01600000075995922, 0.0, 0.9920000471174717, 0.0, 0.0, 0.0, 0.0, 0.0, 1.667046961488104E9, 0.0, 2022-10-29 14:36:01.488
92.0, 2064.503313439898, 1599.125122553669, 2541.9669910329394, -4300.755922494922, 0.01600000075995922, 0.0, 0.9920000471174717, 0.0, 0.0, 0.0, 0.0, 0.0, 1.667046961488104E9, 0.0, 2022-10-29 14:36:01.488
93.0, 2029.8120014509186, 1618.6343106725253, 2620.559118651785, -4479.384764078539, 0.01600000075995922, 0.0, 0.9920000471174717, 0.0, 0.0, 0.0, 0.0, 0.0, 1.667046961503827E9, 0.0, 2022-10-29 14:36:01.503
93.0, 1989.9203585735522, 1636.6755880587734, 2603.7763176006265, -4474.214352389798, 0.01600000075995922, 0.0, 0.9920000471174717, 0.0, 0.0, 0.0, 0.0, 0.0, 1.667046961503827E9, 0.0, 2022-10-29 14:36:01.503
94.0, 2081.102859393228, 1701.5516325901262, 2787.599880222697, -4628.1804237156175, 0.01600000075995922, 0.0, 0.9920000471174717, 0.0, 0.0, 0.0, 0.0, 0.0, 1.6670469615044963E9, 0.0, 2022-10-29 14:36:01.504
94.0, 2040.6782807721756, 1571.0253842365928, 2545.013139546849, -4778.249519287609, 0.01600000075995922, 0.0, 0.9920000471174717, 0.0, 0.0, 0.0, 0.0, 0.0, 1.6670469615044963E9, 0.0, 2022-10-29 14:36:01.504
95.0, 2022.3565108892508, 1617.4955111360177, 2622.225244082045, -4986.326333122328, 0.01600000075995922, 0.0, 0.9920000471174717, 0.0, 0.0, 0.0, 0.0, 0.0, 1.6670469615180638E9, 0.0, 2022-10-29 14:36:01.518
95.0, 1989.0470919338986, 1631.699651167728, 2628.605513406452, -4928.322354759555, 0.01600000075995922, 0.0, 0.9920000471174717, 0.0, 0.0, 0.0, 0.0, 0.0, 1.6670469615180638E9, 0.0, 2022-10-29 14:36:01.518
96.0, 2041.8619591081515, 1661.9816211089492, 2768.0776024539955, -5101.462893158197, 0.01600000075995922, 0.0, 0.9920000471174717, 0.0, 0.0, 0.0, 0.0, 0.0, 1.6670469615338192E9, 0.0, 2022-10-29 14:36:01.533
96.0, 1998.0714705269784, 1524.9965655319393, 3012.259410460945, -5270.676536603365, 0.01600000075995922, 0.0, 0.9920000471174717, 0.0, 0.0, 0.0, 0.0, 0.0, 1.6670469615338192E9, 0.0, 2022-10-29 14:36:01.533
97.0, 2017.8274920429103, 1612.6766500431113, 3096.7381406100467, -5478.18488564482, 0.01600000075995922, 0.0, 0.9920000471174717, 0.0, 0.0, 0.0, 0.0, 0.0, 1.667046961534502E9, 0.0, 2022-10-29 14:36:01.534
97.0, 1982.6443832097575, 1631.0208593257703, 3113.4330540122464, -5399.218768030405, 0.01600000075995922, 0.0, 0.9920000471174717, 0.0, 0.0, 0.0, 0.0, 0.0, 1.667046961534502E9, 0.0, 2022-10-29 14:36:01.534
98.0, 2015.2413512235507, 1630.529062481597, 3236.468282754533, -5567.512396086473, 0.01600000075995922, 0.0, 0.9920000471174717, 0.0, 0.0, 0.0, 0.0, 0.0, 1.6670469615480683E9, 0.0, 2022-10-29 14:36:01.548
98.0, 1981.926322418265, 1504.8160653710365, 2997.393308137078, -5722.989386994392, 0.01600000075995922, 0.0, 0.9920000471174717, 0.0, 0.0, 0.0, 0.0, 0.0, 1.6670469615480683E9, 0.0, 2022-10-29 14:36:01.548
99.0, 2018.8858837303706, 1621.001667344477, 3104.3600567197427, -5911.050256266259, 0.01600000075995922, 0.0, 0.9920000471174717, 0.0, 0.0, 0.0, 0.0, 0.0, 1.6670469615637937E9, 0.0, 2022-10-29 14:36:01.563
99.0, 1999.1635213140398, 1637.4235680499114, 3124.9407261759043, -5863.196366383228, 0.01600000075995922, 0.0, 0.9920000471174717, 0.0, 0.0, 0.0, 0.0, 0.0, 1.6670469615637937E9, 0.0, 2022-10-29 14:36:01.563
100.0, 2018.1958721885458, 1639.6974272229709, 3268.5528844743967, -6020.049640474841, 0.01600000075995922, 0.0, 0.9920000471174717, 0.0, 0.0, 0.0, 0.0, 0.0, 1.6670469615645669E9, 0.0, 2022-10-29 14:36:01.564
100.0, 1978.8296852549538, 1507.47700418951, 3490.654323142953, -6238.891756332014, 0.01600000075995922, 0.0, 0.9920000471174717, 0.0, 0.0, 0.0, 0.0, 0.0, 1.6670469615645669E9, 0.0, 2022-10-29 14:36:01.564
0.0, -5798.658782797866, -5716.51749012107, -2745.5634047207423, -60.26848778594285, 0.01600000075995922, 0.0, 0.9920000471174717, 0.0, 0.0, 0.0, 0.0, 0.0, 1.667046961578866E9, 0.0, 2022-10-29 14:36:01.578
1.0, -5833.434242535848, -5696.258452061098, -2708.587013858836, 20.545140406582505, 0.01600000075995922, -0.01600000075995922, 0.9920000471174717, 0.0, 0.0, 0.0, 0.0, 0.0, 1.6670469615795665E9, 0.0, 2022-10-29 14:36:01.579
1.0, -5837.164792741649, -5720.584631322883, -2592.627675832715, -103.34839537553489, 0.01600000075995922, -0.01600000075995922, 0.9920000471174717, 0.0, 0.0, 0.0, 0.0, 0.0, 1.6670469615795665E9, 0.0, 2022-10-29 14:36:01.579
2.0, -5843.0663548717275, -5827.919760051183, -2376.708291790914, -338.05142694478855, 0.01600000075995922, -0.01600000075995922, 0.9920000471174717, 0.0, 0.0, 0.0, 0.0, 0.0, 1.6670469615931675E9, 0.0, 2022-10-29 14:36:01.593
2.0, -5774.067070639227, -5687.630502863321, -2228.5727244960144, -548.3048625537194, 0.01600000075995922, -0.01600000075995922, 0.9920000471174717, 0.0, 0.0, 0.0, 0.0, 0.0, 1.6670469615931675E9, 0.0, 2022-10-29 14:36:01.593
3.0, -5805.70101441443, -5689.128332795575, -2214.794933059253, -473.43393539078534, 0.01600000075995922, -0.01600000075995922, 0.9920000471174717, 0.0, 0.0, 0.0, 0.0, 0.0, 1.6670469616088145E9, 0.0, 2022-10-29 14:36:01.608
3.0, -5824.12189164618, -5719.292495888192, -2086.744498476386, -622.3436619765125, 0.01600000075995922, -0.01600000075995922, 0.9920000471174717, 0.0, 0.0, 0.0, 0.0, 0.0, 1.6670469616088145E9, 0.0, 2022-10-29 14:36:01.608
4.0, -5856.872195558157, -5842.496020128485, -1896.189115934074, -419.8205995759927, 0.01600000075995922, -0.01600000075995922, 0.9920000471174717, 0.0, 0.0, 0.0, 0.0, 0.0, 1.6670469616095169E9, 0.0, 2022-10-29 14:36:01.609
4.0, -5735.218859849498, -5673.031803386286, -1702.2360342820175, -556.450364657212, 0.01600000075995922, -0.01600000075995922, 0.9920000471174717, 0.0, 0.0, 0.0, 0.0, 0.0, 1.6670469616095169E9, 0.0, 2022-10-29 14:36:01.609
5.0, -5813.919444567058, -5681.594304334838, -1713.928831493482, -497.0813228106126, 0.01600000075995922, -0.01600000075995922, 0.9920000471174717, 0.0, 0.0, 0.0, 0.0, 0.0, 1.6670469616231723E9, 0.0, 2022-10-29 14:36:01.623
5.0, -5841.147786194459, -5735.712526643649, -1612.3232294972986, -649.9478635494597, 0.01600000075995922, -0.01600000075995922, 0.9920000471174717, 0.0, 0.0, 0.0, 0.0, 0.0, 1.6670469616231723E9, 0.0, 2022-10-29 14:36:01.623
6.0, -5883.05710509792, -5862.7008296390995, -1406.1575045399368, -421.1370443603955, 0.01600000075995922, -0.01600000075995922, 0.9920000471174717, 0.0, 0.0, 0.0, 0.0, 0.0, 1.6670469616387942E9, 0.0, 2022-10-29 14:36:01.638
6.0, -5741.548640524503, -5673.026193536352, -1236.3379973019473, -620.3278559003957, 0.01600000075995922, -0.01600000075995922, 0.9920000471174717, 0.0, 0.0, 0.0, 0.0, 0.0, 1.6670469616387942E9, 0.0, 2022-10-29 14:36:01.638
7.0, -5815.469633098692, -5689.386385892518, -1219.781460198108, -472.45782150235027, 0.01600000075995922, -0.01600000075995922, 0.9920000471174717, 0.0, 0.0, 0.0, 0.0, 0.0, 1.667046961639511E9, 0.0, 2022-10-29 14:36:01.639
7.0, -5862.7737576882355, -5750.135450822767, -1136.3293325868435, -661.799606509041, 0.01600000075995922, -0.01600000075995922, 0.9920000471174717, 0.0, 0.0, 0.0, 0.0, 0.0, 1.667046961639511E9, 0.0, 2022-10-29 14:36:01.639
8.0, -5882.393272855785, -5867.938559527043, -913.4013760280795, -888.985439167358, 0.01600000075995922, -0.01600000075995922, 0.9920000471174717, 0.0, 0.0, 0.0, 0.0, 0.0, 1.6670469616531992E9, 0.0, 2022-10-29 14:36:01.653
8.0, -5749.763330777176, -5649.081484070048, -747.3404682455584, -1100.323445763439, 0.01600000075995922, -0.01600000075995922, 0.9920000471174717, 0.0, 0.0, 0.0, 0.0, 0.0, 1.6670469616531992E9, 0.0, 2022-10-29 14:36:01.653
9.0, -5808.204877434764, -5669.6715032760985, -703.5312801646069, -965.026955016423, 0.01600000075995922, -0.01600000075995922, 0.9920000471174717, 0.0, 0.0, 0.0, 0.0, 0.0, 1.667046961685345E9, 0.0, 2022-10-29 14:36:01.685
9.0, -5857.521068200469, -5752.452318845317, -636.774065955542, -1157.7570893829688, 0.01600000075995922, -0.01600000075995922, 0.9920000471174717, 0.0, 0.0, 0.0, 0.0, 0.0, 1.667046961685345E9, 0.0, 2022-10-29 14:36:01.685
10.0, -5875.225754590705, -5856.320560314693, -415.28971077967435, -1377.5902787283994, 0.01600000075995922, -0.01600000075995922, 0.9920000471174717, 0.0, 0.0, 0.0, 0.0, 0.0, 1.6670469616859837E9, 0.0, 2022-10-29 14:36:01.685
10.0, -5729.150872171391, -5641.266963112634, -255.64647132111713, -1606.1954034199007, 0.01600000075995922, -0.01600000075995922, 0.9920000471174717, 0.0, 0.0, 0.0, 0.0, 0.0, 1.6670469616859837E9, 0.0, 2022-10-29 14:36:01.685
11.0, -5784.937089860439, -5648.539198576473, -212.91811432735994, -1430.6837684493512, 0.01600000075995922, -0.01600000075995922, 0.9920000471174717, 0.0, 0.0, 0.0, 0.0, 0.0, 1.6670469616867104E9, 0.0, 2022-10-29 14:36:01.686
11.0, -5855.798844270874, -5743.818759797607, -126.29081165371463, -1562.5657305368222, 0.01600000075995922, -0.01600000075995922, 0.9920000471174717, 0.0, 0.0, 0.0, 0.0, 0.0, 1.6670469616867104E9, 0.0, 2022-10-29 14:36:01.686
12.0, -5865.391687657218, -5847.960013963748, 80.08434770116583, -1352.966777420137, 0.01600000075995922, -0.01600000075995922, 0.9920000471174717, 0.0, 0.0, 0.0, 0.0, 0.0, 1.6670469616874E9, 0.0, 2022-10-29 14:36:01.687
12.0, -5695.882592115551, -5620.617105507292, 279.60240048728883, -1536.2368348487653, 0.01600000075995922, -0.01600000075995922, 0.9920000471174717, 0.0, 0.0, 0.0, 0.0, 0.0, 1.6670469616874E9, 0.0, 2022-10-29 14:36:01.687
13.0, -5761.026039493736, -5617.35591274593, 295.3623389005661, -1390.3339878274128, 0.01600000075995922, -0.01600000075995922, 0.9920000471174717, 0.0, 0.0, 0.0, 0.0, 0.0, 1.6670469616981232E9, 0.0, 2022-10-29 14:36:01.698
13.0, -5845.441191343591, -5732.827193827834, 388.94585549179465, -1489.5441839019768, 0.01600000075995922, -0.01600000075995922, 0.9920000471174717, 0.0, 0.0, 0.0, 0.0, 0.0, 1.6670469616981232E9, 0.0, 2022-10-29 14:36:01.698
14.0, -5867.925469877198, -5853.431487598922, 549.6755358874798, -1371.744815097656, 0.01600000075995922, -0.01600000075995922, 0.9920000471174717, 0.0, 0.0, 0.0, 0.0, 0.0, 1.667046961713106E9, 0.0, 2022-10-29 14:36:01.713
14.0, -5688.348563654814, -6091.1769277821295, 774.8044235701673, -1533.069139586296, 0.01600000075995922, -0.01600000075995922, 0.9920000471174717, 0.0, 0.0, 0.0, 0.0, 0.0, 1.667046961713106E9, 0.0, 2022-10-29 14:36:01.713
15.0, -5788.1908028218895, -6139.689040057361, 777.1605605422519, -1389.6159270359203, 0.01600000075995922, -0.01600000075995922, 0.9920000471174717, 0.0, 0.0, 0.0, 0.0, 0.0, 1.667046961728796E9, 0.0, 2022-10-29 14:36:01.728
15.0, -5845.622576491442, -6224.897050697822, 894.9000909472816, -1468.0995975560509, 0.01600000075995922, -0.01600000075995922, 0.9920000471174717, 0.0, 0.0, 0.0, 0.0, 0.0, 1.667046961728796E9, 0.0, 2022-10-29 14:36:01.728
16.0, -5886.667978505138, -6350.464191710111, 1059.9269163920544, -1357.1442456706427, 0.01600000075995922, -0.01600000075995922, 0.9920000471174717, 0.0, 0.0, 0.0, 0.0, 0.0, 1.6670469617295573E9, 0.0, 2022-10-29 14:36:01.729
16.0, -5690.4036386804655, -6579.944452991243, 1257.0589130064473, -1586.6619059513323, 0.01600000075995922, -0.01600000075995922, 0.9920000471174717, 0.0, 0.0, 0.0, 0.0, 0.0, 1.6670469617295573E9, 0.0, 2022-10-29 14:36:01.729
17.0, -5750.524400418159, -6594.494533768855, 1300.3295554937795, -1368.0778431911021, 0.01600000075995922, -0.01600000075995922, 0.9920000471174717, 0.0, 0.0, 0.0, 0.0, 0.0, 1.6670469617431216E9, 0.0, 2022-10-29 14:36:01.743
17.0, -5835.5528958607465, -6699.924183469731, 1389.7243841346353, -1455.9486626000144, 0.01600000075995922, -0.01600000075995922, 0.9920000471174717, 0.0, 0.0, 0.0, 0.0, 0.0, 1.6670469617431216E9, 0.0, 2022-10-29 14:36:01.743
18.0, -5871.437235935591, -6824.40675349487, 1548.3672003550455, -1356.6057000770234, 0.01600000075995922, -0.01600000075995922, 0.9920000471174717, 0.0, 0.0, 0.0, 0.0, 0.0, 1.667046961758784E9, 0.0, 2022-10-29 14:36:01.758
18.0, -5665.404277426656, -7048.161227943841, 1725.6926868041046, -1115.0212525893003, 0.01600000075995922, -0.01600000075995922, 0.9920000471174717, 0.0, 0.0, 0.0, 0.0, 0.0, 1.667046961758784E9, 0.0, 2022-10-29 14:36:01.758
19.0, -5736.894335029647, -7073.818811589852, 1793.732686697971, -882.3115876964293, 0.01600000075995922, -0.01600000075995922, 0.9920000471174717, 0.0, 0.0, 0.0, 0.0, 0.0, 1.6670469617595677E9, 0.0, 2022-10-29 14:36:01.759
19.0, -5815.378005549777, -7179.300819890108, 1882.3496161480434, -963.8357968805358, 0.01600000075995922, -0.01600000075995922, 0.9920000471174717, 0.0, 0.0, 0.0, 0.0, 0.0, 1.6670469617595677E9, 0.0, 2022-10-29 14:36:01.759
20.0, -5833.206108638551, -7288.363782397937, 2050.6638136538677, -881.845970151946, 0.01600000075995922, -0.01600000075995922, 0.9920000471174717, 0.0, 0.0, 0.0, 0.0, 0.0, 1.6670469617731228E9, 0.0, 2022-10-29 14:36:01.773
20.0, -5669.074989233166, -7057.755941280164, 2211.71699539572, -661.2722806152888, 0.01600000075995922, -0.01600000075995922, 0.9920000471174717, 0.0, 0.0, 0.0, 0.0, 0.0, 1.6670469617731228E9, 0.0, 2022-10-29 14:36:01.773
21.0, -5722.396612851415, -7069.089708095882, 2282.4198040580377, -902.2115953606553, 0.01600000075995922, -0.01600000075995922, 0.9920000471174717, 0.0, 0.0, 0.0, 0.0, 0.0, 1.6670469617888288E9, 0.0, 2022-10-29 14:36:01.788
21.0, -5808.610656579956, -7161.1379957553, 2385.3568104384467, -906.7312644571066, 0.01600000075995922, -0.01600000075995922, 0.9920000471174717, 0.0, 0.0, 0.0, 0.0, 0.0, 1.6670469617888288E9, 0.0, 2022-10-29 14:36:01.788
22.0, -5856.978782706894, -7294.057780080475, 2520.3297998392954, -860.9287096997723, 0.01600000075995922, -0.01600000075995922, 0.9920000471174717, 0.0, 0.0, 0.0, 0.0, 0.0, 1.6670469617896292E9, 0.0, 2022-10-29 14:36:01.789
22.0, -5666.690803011414, -7534.709122529253, 2692.741057746578, -641.0020228554495, 0.01600000075995922, -0.01600000075995922, 0.9920000471174717, 0.0, 0.0, 0.0, 0.0, 0.0, 1.6670469617896292E9, 0.0, 2022-10-29 14:36:01.789
23.0, -5717.592711358331, -7536.659480356146, 2758.8026505638845, -878.5941271404736, 0.01600000075995922, -0.01600000075995922, 0.9920000471174717, 0.0, 0.0, 0.0, 0.0, 0.0, 1.6670469618031795E9, 0.0, 2022-10-29 14:36:01.803
23.0, -5809.7793753161095, -7656.700919183902, 2868.3592798658647, -901.1625534230843, 0.01600000075995922, -0.01600000075995922, 0.9920000471174717, 0.0, 0.0, 0.0, 0.0, 0.0, 1.6670469618031795E9, 0.0, 2022-10-29 14:36:01.803
24.0, -5851.423161322717, -7790.955847793259, 3003.0068979705684, -894.3409759039059, 0.01600000075995922, -0.01600000075995922, 0.9920000471174717, 0.0, 0.0, 0.0, 0.0, 0.0, 1.6670469618188152E9, 0.0, 2022-10-29 14:36:01.818
24.0, -5674.576382067986, -7547.7931625242345, 3172.751607209444, -668.6473633279093, 0.01600000075995922, -0.01600000075995922, 0.9920000471174717, 0.0, 0.0, 0.0, 0.0, 0.0, 1.6670469618188152E9, 0.0, 2022-10-29 14:36:01.818
25.0, -5724.139406230766, -7559.010992441326, 3223.988236602396, -426.3785141482949, 0.01600000075995922, -0.01600000075995922, 0.9920000471174717, 0.0, 0.0, 0.0, 0.0, 0.0, 1.667046961819523E9, 0.0, 2022-10-29 14:36:01.819
25.0, -5822.422107116319, -7671.505313158501, 3359.9149004919454, -386.52988012041897, 0.01600000075995922, -0.01600000075995922, 0.9920000471174717, 0.0, 0.0, 0.0, 0.0, 0.0, 1.667046961819523E9, 0.0, 2022-10-29 14:36:01.819
26.0, -5875.689502185211, -7819.822265601251, 3469.202256997116, -405.6538585438393, 0.01600000075995922, -0.01600000075995922, 0.9920000471174717, 0.0, 0.0, 0.0, 0.0, 0.0, 1.6670469618332129E9, 0.0, 2022-10-29 14:36:01.833
26.0, -5691.123569421936, -8055.993207903113, 3654.6358465501107, -650.3592525445856, 0.01600000075995922, -0.01600000075995922, 0.9920000471174717, 0.0, 0.0, 0.0, 0.0, 0.0, 1.6670469618332129E9, 0.0, 2022-10-29 14:36:01.833
27.0, -5764.685531600378, -8068.512523004785, 3692.0049269073643, -421.5390836056322, 0.01600000075995922, -0.01600000075995922, 0.9920000471174717, 0.0, 0.0, 0.0, 0.0, 0.0, 1.6670469618487957E9, 0.0, 2022-10-29 14:36:01.848
27.0, -5837.3012990900315, -8169.054123463575, 3842.453622324858, -380.63953769020736, 0.01600000075995922, -0.01600000075995922, 0.9920000471174717, 0.0, 0.0, 0.0, 0.0, 0.0, 1.6670469618487957E9, 0.0, 2022-10-29 14:36:01.848
28.0, -5898.938590259757, -8322.206766549032, 3952.3057037233375, -406.48411633400247, 0.01600000075995922, -0.01600000075995922, 0.9920000471174717, 0.0, 0.0, 0.0, 0.0, 0.0, 1.667046961849508E9, 0.0, 2022-10-29 14:36:01.849
28.0, -5715.831218479201, -8563.811783486512, 4120.154283684678, -221.70874917320907, 0.01600000075995922, -0.01600000075995922, 0.9920000471174717, 0.0, 0.0, 0.0, 0.0, 0.0, 1.667046961849508E9, 0.0, 2022-10-29 14:36:01.849
29.0, -5767.623223015573, -8564.232522231527, 4183.994375928305, -432.5717884749174, 0.01600000075995922, -0.01600000075995922, 0.9920000471174717, 0.0, 0.0, 0.0, 0.0, 0.0, 1.6670469618631268E9, 0.0, 2022-10-29 14:36:01.863
29.0, -5833.933519179933, -8651.194545951206, 4324.105987868272, -370.45953001081944, 0.01600000075995922, -0.01600000075995922, 0.9920000471174717, 0.0, 0.0, 0.0, 0.0, 0.0, 1.6670469618631268E9, 0.0, 2022-10-29 14:36:01.863
30.0, -5875.913896182552, -8792.450567277614, 4439.332305503078, -415.4336969279684, 0.01600000075995922, -0.01600000075995922, 0.9920000471174717, 0.0, 0.0, 0.0, 0.0, 0.0, 1.6670469618787637E9, 0.0, 2022-10-29 14:36:01.878
30.0, -5697.212126549799, -9037.481332574505, 4605.45305168489, -220.6989761851728, 0.01600000075995922, -0.01600000075995922, 0.9920000471174717, 0.0, 0.0, 0.0, 0.0, 0.0, 1.6670469618787637E9, 0.0, 2022-10-29 14:36:01.878
31.0, -5743.297043753788, -9030.581217156257, 4685.172759140376, -421.65876040421426, 0.01600000075995922, 0.0, 0.9920000471174717, 0.0, 0.0, 0.0, 0.0, 0.0, 1.6670469618794792E9, 0.0, 2022-10-29 14:36:01.879
31.0, -5802.572588101495, -9106.589073905721, 4822.950673507992, -370.68018410820514, 0.01600000075995922, 0.0, 0.9920000471174717, 0.0, 0.0, 0.0, 0.0, 0.0, 1.6670469618794792E9, 0.0, 2022-10-29 14:36:01.879
32.0, -5840.394196353387, -9230.207727041095, 4938.363986140583, -411.2599685774185, 0.01600000075995922, 0.0, 0.9920000471174717, 0.0, 0.0, 0.0, 0.0, 0.0, 1.6670469618931158E9, 0.0, 2022-10-29 14:36:01.893
32.0, -5669.269464030862, -8997.412044449244, 5095.710927026346, -223.2869869545102, 0.01600000075995922, 0.0, 0.9920000471174717, 0.0, 0.0, 0.0, 0.0, 0.0, 1.6670469618931158E9, 0.0, 2022-10-29 14:36:01.893
33.0, -5709.105008408893, -8983.151805918198, 5162.890749930404, -413.59179619979113, 0.01600000075995922, 0.0, 0.9920000471174717, 0.0, 0.0, 0.0, 0.0, 0.0, 1.6670469619087486E9, 0.0, 2022-10-29 14:36:01.908
33.0, -5765.527009090409, -9072.81029750593, 5306.252334931865, -361.3865327183157, 0.01600000075995922, 0.0, 0.9920000471174717, 0.0, 0.0, 0.0, 0.0, 0.0, 1.6670469619087486E9, 0.0, 2022-10-29 14:36:01.908
34.0, -5817.635035173036, -9221.288065646775, 5420.435220479034, -410.8448396823369, 0.01600000075995922, 0.0, 0.9920000471174717, 0.0, 0.0, 0.0, 0.0, 0.0, 1.667046961909537E9, 0.0, 2022-10-29 14:36:01.909
34.0, -5642.587147796992, -8981.42397213867, 5588.725108635146, -201.96581730712205, 0.01600000075995922, 0.0, 0.9920000471174717, 0.0, 0.0, 0.0, 0.0, 0.0, 1.667046961909537E9, 0.0, 2022-10-29 14:36:01.909
35.0, -5692.337166957557, -8964.340109141078, 5649.326447517145, -410.3418231382966, 0.01600000075995922, 0.0, 0.9920000471174717, 0.0, 0.0, 0.0, 0.0, 0.0, 1.6670469619231203E9, 0.0, 2022-10-29 14:36:01.923
35.0, -5747.734435051214, -9048.519647293724, 5809.229610022623, -357.19410486798733, 0.01600000075995922, 0.0, 0.9920000471174717, 0.0, 0.0, 0.0, 0.0, 0.0, 1.6670469619231203E9, 0.0, 2022-10-29 14:36:01.923
36.0, -5790.713365342002, -9187.75612264406, 5939.621221977752, -390.40628642449155, 0.01600000075995922, 0.0, 0.9920000471174717, 0.0, 0.0, 0.0, 0.0, 0.0, 1.6670469619551945E9, 0.0, 2022-10-29 14:36:01.955
36.0, -5631.732088175602, -8976.289089499507, 6124.606023536064, -157.56198513321579, 0.01600000075995922, 0.0, 0.9920000471174717, 0.0, 0.0, 0.0, 0.0, 0.0, 1.6670469619551945E9, 0.0, 2022-10-29 14:36:01.955
37.0, -5684.522646000143, -8967.60130190244, 6176.4933955213055, -395.4046627152711, 0.01600000075995922, 0.0, 0.9920000471174717, 0.0, 0.0, 0.0, 0.0, 0.0, 1.6670469619559057E9, 0.0, 2022-10-29 14:36:01.955
37.0, -5728.199067632668, -9032.007988989353, 6346.748601104133, -331.4523734729737, 0.01600000075995922, 0.0, 0.9920000471174717, 0.0, 0.0, 0.0, 0.0, 0.0, 1.6670469619559057E9, 0.0, 2022-10-29 14:36:01.955
38.0, -5793.643576957285, -9194.207450067624, 6470.172779441811, -375.81319679738954, 0.01600000075995922, 0.0, 0.9920000471174717, 0.0, 0.0, 0.0, 0.0, 0.0, 1.6670469619566107E9, 0.0, 2022-10-29 14:36:01.956
38.0, -5642.25055680098, -8972.627727442887, 6613.027607999276, -147.48295475263149, 0.01600000075995922, 0.0, 0.9920000471174717, 0.0, 0.0, 0.0, 0.0, 0.0, 1.6670469619566107E9, 0.0, 2022-10-29 14:36:01.956
39.0, -5680.870633693412, -8965.996884821448, 6697.1603974024765, -384.76464734133333, 0.01600000075995922, 0.0, 0.9920000471174717, 0.0, 0.0, 0.0, 0.0, 0.0, 1.667046961957402E9, 0.0, 2022-10-29 14:36:01.957
39.0, -5727.673611688893, -9038.863225608133, 6819.170893556904, -353.44298521243036, 0.01600000075995922, 0.0, 0.9920000471174717, 0.0, 0.0, 0.0, 0.0, 0.0, 1.667046961957402E9, 0.0, 2022-10-29 14:36:01.957
40.0, -5789.475458456669, -9196.40651124157, 6999.74448311748, -349.6918655568734, 0.01600000075995922, 0.0, 1.008000047877431, 0.0, 0.0, 0.0, 0.0, 0.0, 1.6670469619682343E9, 0.0, 2022-10-29 14:36:01.968
40.0, -5667.104061956517, -9004.121424969751, 7119.666245146655, -166.18806438101456, 0.01600000075995922, 0.0, 1.008000047877431, 0.0, 0.0, 0.0, 0.0, 0.0, 1.6670469619682343E9, 0.0, 2022-10-29 14:36:01.968
41.0, -5703.599875674117, -8989.61435304163, 7185.121974171139, -391.1617462155409, 0.01600000075995922, 0.0, 1.008000047877431, 0.0, 0.0, 0.0, 0.0, 0.0, 1.667046961983569E9, 0.0, 2022-10-29 14:36:01.983
41.0, -5760.3435077518225, -9069.941794239916, 7316.429861615412, -416.39672116655856, 0.01600000075995922, 0.0, 1.008000047877431, 0.0, 0.0, 0.0, 0.0, 0.0, 1.667046961983569E9, 0.0, 2022-10-29 14:36:01.983
42.0, -5854.805900832638, -9257.247203720734, 7431.581381251104, -428.01472037890926, 0.01600000075995922, 0.0, 1.008000047877431, 0.0, 0.0, 0.0, 0.0, 0.0, 1.6670469619987345E9, 0.0, 2022-10-29 14:36:01.998
42.0, -5757.910702830646, -9100.89881612314, 7531.887368012685, -248.24707925878465, 0.01600000075995922, 0.0, 1.008000047877431, 0.0, 0.0, 0.0, 0.0, 0.0, 1.6670469619987345E9, 0.0, 2022-10-29 14:36:01.998
43.0, -5787.016474235803, -9068.773075503763, 7597.896602230612, -490.6823539864272, 0.01600000075995922, 0.0, 1.008000047877431, 0.0, 0.0, 0.0, 0.0, 0.0, 1.6670469619995189E9, 0.0, 2022-10-29 14:36:01.999
43.0, -5776.013688566163, -9088.540316719562, 7780.1157477716915, -491.1853705304675, 0.01600000075995922, 0.0, 1.008000047877431, 0.0, 0.0, 0.0, 0.0, 0.0, 1.6670469619995189E9, 0.0, 2022-10-29 14:36:01.999
44.0, -5914.382507126778, -9315.593382929452, 7922.254385487642, -325.9528505881317, 0.01600000075995922, 0.0, 1.008000047877431, 0.0, 0.0, 0.0, 0.0, 0.0, 1.6670469620130885E9, 0.0, 2022-10-29 14:36:02.013
44.0, -5669.525647177827, -9498.448311462998, 7866.675732246134, -494.2633081940003, 0.01600000075995922, 0.0, 1.008000047877431, 0.0, 0.0, 0.0, 0.0, 0.0, 1.6670469620130885E9, 0.0, 2022-10-29 14:36:02.013
45.0, -5594.121784271207, -9357.412944233976, 7896.27704039542, -613.0948893860914, 0.01600000075995922, 0.0, 1.008000047877431, 0.0, 0.0, 0.0, 0.0, 0.0, 1.6670469620288527E9, 0.0, 2022-10-29 14:36:02.028
45.0, -5605.668725384399, -9401.73262865888, 7783.3002725839615, -385.5668558818288, 0.01600000075995922, 0.0, 1.008000047877431, 0.0, 0.0, 0.0, 0.0, 0.0, 1.6670469620288527E9, 0.0, 2022-10-29 14:36:02.028
46.0, -5599.709194805007, -9492.137230287772, 7633.706144306343, -341.37993790535256, 0.01600000075995922, 0.0, 1.008000047877431, 0.0, 0.0, 0.0, 0.0, 0.0, 1.667046962029612E9, 0.0, 2022-10-29 14:36:02.029
46.0, -5568.198667728342, -9387.234906480648, 7461.663266544696, -406.8468866297044, 0.01600000075995922, 0.0, 1.008000047877431, 0.0, 0.0, 0.0, 0.0, 0.0, 1.667046962029612E9, 0.0, 2022-10-29 14:36:02.029
47.0, -5543.002961726859, -9312.25365226902, 7437.572700980119, -598.5130194588564, 0.01600000075995922, 0.0, 1.008000047877431, 0.0, 0.0, 0.0, 0.0, 0.0, 1.6670469620430975E9, 0.0, 2022-10-29 14:36:02.043
47.0, -5556.030903222505, -9365.2012858917, 7315.979203670751, -383.0461633116938, 0.01600000075995922, 0.0, 1.008000047877431, 0.0, 0.0, 0.0, 0.0, 0.0, 1.6670469620430975E9, 0.0, 2022-10-29 14:36:02.043
48.0, -5570.911965146195, -9469.43977745669, 7158.920235081576, -325.1712114973925, 0.01600000075995922, 0.0, 1.008000047877431, 0.0, 0.0, 0.0, 0.0, 0.0, 1.6670469620588014E9, 0.0, 2022-10-29 14:36:02.058
48.0, -5569.836743908934, -9379.369896873832, 6996.028892511502, -387.25729066180065, 0.01600000075995922, 0.0, 1.008000047877431, 0.0, 0.0, 0.0, 0.0, 0.0, 1.6670469620588014E9, 0.0, 2022-10-29 14:36:02.058
49.0, -5533.49239613954, -9284.051066703163, 6951.724167686421, -589.7392141628079, 0.01600000075995922, 0.0, 1.008000047877431, 0.0, 0.0, 0.0, 0.0, 0.0, 1.6670469620595264E9, 0.0, 2022-10-29 14:36:02.059
49.0, -5568.567047873978, -9360.040223952848, 6859.324329431169, -774.9297102186829, 0.01600000075995922, 0.0, 1.008000047877431, 0.0, 0.0, 0.0, 0.0, 0.0, 1.6670469620595264E9, 0.0, 2022-10-29 14:36:02.059
50.0, -5669.73134167539, -9556.197976628784, 7066.507307176478, -863.1932191229425, 0.01600000075995922, 0.0, 0.9920000471174717, 0.0, 0.0, 0.0, 0.0, 0.0, 1.6670469620730543E9, 0.0, 2022-10-29 14:36:02.073
50.0, -5736.155704788398, -9551.20334023796, 7095.242828486022, -683.8033078983426, 0.01600000075995922, 0.0, 0.9920000471174717, 0.0, 0.0, 0.0, 0.0, 0.0, 1.6670469620730543E9, 0.0, 2022-10-29 14:36:02.073
51.0, -5782.117205293849, -9548.177761173807, 7133.315010034945, -508.0336198308505, 0.01600000075995922, -0.01600000075995922, 0.9920000471174717, 0.0, 0.0, 0.0, 0.0, 0.0, 1.6670469621051207E9, 0.0, 2022-10-29 14:36:02.105
51.0, -5715.546986082569, -9511.691297206096, 7324.2743017724715, -525.6429387722164, 0.01600000075995922, -0.01600000075995922, 0.9920000471174717, 0.0, 0.0, 0.0, 0.0, 0.0, 1.6670469621051207E9, 0.0, 2022-10-29 14:36:02.105
52.0, -5814.123269114643, -9705.799584706314, 7476.529368868563, -382.7039624657482, 0.01600000075995922, -0.01600000075995922, 0.9920000471174717, 0.0, 0.0, 0.0, 0.0, 0.0, 1.6670469621058896E9, 0.0, 2022-10-29 14:36:02.105
52.0, -5822.6839001132175, -9630.969796442892, 7508.69811833743, -210.80507085239515, 0.01600000075995922, -0.01600000075995922, 0.9920000471174717, 0.0, 0.0, 0.0, 0.0, 0.0, 1.6670469621058896E9, 0.0, 2022-10-29 14:36:02.105
53.0, -5819.396528052166, -9568.337691884954, 7599.2672755643725, 1.0621315874159336, 0.01600000075995922, -0.01600000075995922, 0.9920000471174717, 0.0, 0.0, 0.0, 0.0, 0.0, 1.6670469621065948E9, 0.0, 2022-10-29 14:36:02.106
53.0, -5716.2500872742385, -9509.33703018399, 7787.0027735400945, -72.74666398810223, 0.01600000075995922, -0.01600000075995922, 0.9920000471174717, 0.0, 0.0, 0.0, 0.0, 0.0, 1.6670469621065948E9, 0.0, 2022-10-29 14:36:02.106
54.0, -5809.571810868569, -9698.400192643981, 7972.91320033744, 96.08737961156294, 0.01600000075995922, -0.01600000075995922, 0.9920000471174717, 0.0, 0.0, 0.0, 0.0, 0.0, 1.667046962107377E9, 0.0, 2022-10-29 14:36:02.107
54.0, -5833.054642690346, -9659.043355460279, 8007.741018674802, 313.34751778747886, 0.01600000075995922, -0.01600000075995922, 0.9920000471174717, 0.0, 0.0, 0.0, 0.0, 0.0, 1.667046962107377E9, 0.0, 2022-10-29 14:36:02.107
55.0, -5815.29759770073, -9584.993336337619, 8092.427313271444, 511.01805999549106, 0.01600000075995922, -0.01600000075995922, 0.9920000471174717, 0.0, 0.0, 0.0, 0.0, 0.0, 1.667046962118091E9, 0.0, 2022-10-29 14:36:02.118
55.0, -5700.194696764462, -9492.617807432078, 8288.398070949595, 446.30470111221075, 0.01600000075995922, -0.01600000075995922, 0.9920000471174717, 0.0, 0.0, 0.0, 0.0, 0.0, 1.667046962118091E9, 0.0, 2022-10-29 14:36:02.118
56.0, -5787.289486932568, -9680.888111101463, 8469.4503677045, 629.3578443434089, 0.01600000075995922, -0.01600000075995922, 0.9920000471174717, 0.0, 0.0, 0.0, 0.0, 0.0, 1.6670469621331189E9, 0.0, 2022-10-29 14:36:02.133
56.0, -5852.711556857452, -9668.350096500013, 8484.26224147901, 802.2440695450641, 0.01600000075995922, -0.01600000075995922, 0.9920000471174717, 0.0, 0.0, 0.0, 0.0, 0.0, 1.6670469621331189E9, 0.0, 2022-10-29 14:36:02.133
57.0, -5811.9990059398115, -9581.834990825038, 8554.695777344517, 945.2185749011114, 0.01600000075995922, -0.01600000075995922, 0.9920000471174717, 0.0, 0.0, 0.0, 0.0, 0.0, 1.6670469621487856E9, 0.0, 2022-10-29 14:36:02.148
57.0, -5674.632480567321, -9470.969396538567, 8793.795061311685, 941.7198984925635, 0.01600000075995922, -0.01600000075995922, 0.9920000471174717, 0.0, 0.0, 0.0, 0.0, 0.0, 1.6670469621487856E9, 0.0, 2022-10-29 14:36:02.148
58.0, -5780.011641618796, -9678.668480477761, 8964.293360391632, 1123.7296096361242, 0.01600000075995922, -0.01600000075995922, 0.9920000471174717, 0.0, 0.0, 0.0, 0.0, 0.0, 1.667046962149479E9, 0.0, 2022-10-29 14:36:02.149
58.0, -5866.051779999398, -9691.163486229721, 8963.313506603241, 1301.952672074549, 0.01600000075995922, -0.01600000075995922, 0.9920000471174717, 0.0, 0.0, 0.0, 0.0, 0.0, 1.667046962149479E9, 0.0, 2022-10-29 14:36:02.149
59.0, -5833.301476087421, -9595.58660296211, 9038.504195212387, 1425.8462078566663, 0.01600000075995922, -0.01600000075995922, 0.9920000471174717, 0.0, 0.0, 0.0, 0.0, 0.0, 1.6670469621631684E9, 0.0, 2022-10-29 14:36:02.163
59.0, -5666.9282866586, -9456.847534305882, 8813.248150931206, 1424.9131028177217, 0.01600000075995922, -0.01600000075995922, 0.9920000471174717, 0.0, 0.0, 0.0, 0.0, 0.0, 1.6670469621631684E9, 0.0, 2022-10-29 14:36:02.163
60.0, -5788.71064891573, -9670.586556673516, 8969.650767078158, 1621.4822444887832, 0.01600000075995922, -0.01600000075995922, 0.9920000471174717, 0.0, 0.0, 0.0, 0.0, 0.0, 1.6670469621788545E9, 0.0, 2022-10-29 14:36:02.178
60.0, -5887.530025444925, -9699.335167632904, 8961.090136079583, 1827.720897495281, 0.01600000075995922, -0.01600000075995922, 0.9920000471174717, 0.0, 0.0, 0.0, 0.0, 0.0, 1.6670469621788545E9, 0.0, 2022-10-29 14:36:02.178
61.0, -5844.00132986065, -9616.627280112822, 9024.06257153349, 1911.8929558480158, 0.01600000075995922, -0.01600000075995922, 0.9920000471174717, 0.0, 0.0, 0.0, 0.0, 0.0, 1.66704696217949E9, 0.0, 2022-10-29 14:36:02.179
61.0, -5652.959760324098, -9450.762717077974, 8803.11863190122, 1896.9277461753227, 0.01600000075995922, -0.01600000075995922, 0.9920000471174717, 0.0, 0.0, 0.0, 0.0, 0.0, 1.66704696217949E9, 0.0, 2022-10-29 14:36:02.179
62.0, -5772.000775913708, -9673.039931044448, 8965.96883557178, 2120.3306700284593, 0.01600000075995922, -0.01600000075995922, 0.9920000471174717, 0.0, 0.0, 0.0, 0.0, 0.0, 1.6670469621931517E9, 0.0, 2022-10-29 14:36:02.193
62.0, -5906.195866123773, -9726.082932115998, 8942.998370043933, 2278.362012606114, 0.01600000075995922, -0.01600000075995922, 0.9920000471174717, 0.0, 0.0, 0.0, 0.0, 0.0, 1.6670469621931517E9, 0.0, 2022-10-29 14:36:02.193
63.0, -5862.543753840961, -9624.323994221631, 9010.159493448213, 2395.8042209646665, 0.01600000075995922, -0.01600000075995922, 0.9920000471174717, 0.0, 0.0, 0.0, 0.0, 0.0, 1.6670469622088697E9, 0.0, 2022-10-29 14:36:02.208
63.0, -5651.755512538366, -9449.416353093926, 8807.825295995455, 2373.7481609759852, 0.01600000075995922, -0.01600000075995922, 0.9920000471174717, 0.0, 0.0, 0.0, 0.0, 0.0, 1.6670469622088697E9, 0.0, 2022-10-29 14:36:02.208
64.0, -5771.297674722038, -9658.933028411586, 8983.555715113413, 2612.7988262437284, 0.01600000075995922, -0.01600000075995922, 0.9920000471174717, 0.0, 0.0, 0.0, 0.0, 0.0, 1.6670469622095938E9, 0.0, 2022-10-29 14:36:02.209
64.0, -5925.7293635923415, -9735.33170470642, 8930.998901036102, 2799.4703226820566, 0.01600000075995922, -0.01600000075995922, 0.9920000471174717, 0.0, 0.0, 0.0, 0.0, 0.0, 1.6670469622095938E9, 0.0, 2022-10-29 14:36:02.209
65.0, -5878.299952354282, -9635.966302783694, 8986.727150275838, 2893.3287219200283, 0.01600000075995922, -0.01600000075995922, 0.9920000471174717, 0.0, 0.0, 0.0, 0.0, 0.0, 1.6670469622395296E9, 0.0, 2022-10-29 14:36:02.239
65.0, -5652.45487383008, -9435.892874854151, 8809.566219424829, 2855.3369482201524, 0.01600000075995922, -0.01600000075995922, 0.9920000471174717, 0.0, 0.0, 0.0, 0.0, 0.0, 1.6670469622395296E9, 0.0, 2022-10-29 14:36:02.239
66.0, -5764.61447350122, -9655.365163853858, 8985.446234541014, 2637.781357947737, 0.01600000075995922, -0.01600000075995922, 0.9920000471174717, 0.0, 0.0, 0.0, 0.0, 0.0, 1.667046962240239E9, 0.0, 2022-10-29 14:36:02.240
66.0, -5939.724069226533, -9755.87871506298, 8928.85780831147, 2760.3322696457617, 0.01600000075995922, -0.01600000075995922, 0.9920000471174717, 0.0, 0.0, 0.0, 0.0, 0.0, 1.667046962240239E9, 0.0, 2022-10-29 14:36:02.240
67.0, -5885.2786056715995, -9648.382770636585, 8993.748812442645, 2861.6293298956007, 0.01600000075995922, -0.01600000075995922, 0.9920000471174717, 0.0, 0.0, 0.0, 0.0, 0.0, 1.6670469622410736E9, 0.0, 2022-10-29 14:36:02.241
67.0, -6128.007462545764, -9421.95052781934, 8807.888874294702, 2857.3864133958705, 0.01600000075995922, -0.01600000075995922, 0.9920000471174717, 0.0, 0.0, 0.0, 0.0, 0.0, 1.6670469622410736E9, 0.0, 2022-10-29 14:36:02.241
68.0, -6348.34740833519, -9241.775237604044, 8984.86841999786, 2751.7622888972983, 0.01600000075995922, -0.01600000075995922, 0.9920000471174717, 0.0, 0.0, 0.0, 0.0, 0.0, 1.6670469622531352E9, 0.0, 2022-10-29 14:36:02.253
68.0, -6390.944868830498, -9213.335168391, 9220.656022554263, 2543.9622276593, 0.01600000075995922, -0.01600000075995922, 0.9920000471174717, 0.0, 0.0, 0.0, 0.0, 0.0, 1.6670469622531352E9, 0.0, 2022-10-29 14:36:02.253
69.0, -6212.850832940545, -8984.666465400252, 9225.992859791033, 2717.091546358075, 0.01600000075995922, -0.01600000075995922, 0.9920000471174717, 0.0, 0.0, 0.0, 0.0, 0.0, 1.6670469622688277E9, 0.0, 2022-10-29 14:36:02.268
69.0, -6437.815165025182, -8756.050121008884, 9249.034383418038, 2929.585182040464, 0.01600000075995922, -0.01600000075995922, 0.9920000471174717, 0.0, 0.0, 0.0, 0.0, 0.0, 1.6670469622688277E9, 0.0, 2022-10-29 14:36:02.268
70.0, -6483.939351178706, -8898.54030932067, 9190.772351958323, 2746.6947244573385, 0.01600000075995922, -0.01600000075995922, 0.9920000471174717, 0.0, 0.0, 0.0, 0.0, 0.0, 1.6670469622694767E9, 0.0, 2022-10-29 14:36:02.269
70.0, -6258.350455801468, -9083.407304030377, 9316.82754991483, 2627.3881759708747, 0.01600000075995922, -0.01600000075995922, 0.9920000471174717, 0.0, 0.0, 0.0, 0.0, 0.0, 1.6670469622694767E9, 0.0, 2022-10-29 14:36:02.269
71.0, -6155.293772622477, -8940.46832772391, 9289.68522598641, 2770.21682522865, 0.01600000075995922, -0.01600000075995922, 0.9920000471174717, 0.0, 0.0, 0.0, 0.0, 0.0, 1.667046962283123E9, 0.0, 2022-10-29 14:36:02.283
71.0, -6396.777242811397, -8722.20402640989, 9295.590528016444, 2920.4149473491125, 0.01600000075995922, -0.01600000075995922, 0.9920000471174717, 0.0, 0.0, 0.0, 0.0, 0.0, 1.667046962283123E9, 0.0, 2022-10-29 14:36:02.283
72.0, -6466.597435084172, -8893.685919178184, 9200.71113609057, 2768.7302149962634, 0.01600000075995922, -0.01600000075995922, 0.9920000471174717, 0.0, 0.0, 0.0, 0.0, 0.0, 1.667046962298804E9, 0.0, 2022-10-29 14:36:02.298
72.0, -6281.2274238304235, -9102.544372103643, 9297.045349099208, 2636.247998965904, 0.01600000075995922, -0.01600000075995922, 0.9920000471174717, 0.0, 0.0, 0.0, 0.0, 0.0, 1.667046962298804E9, 0.0, 2022-10-29 14:36:02.298
73.0, -6165.496219701599, -8938.605857545976, 9294.459208279848, 2784.017056065146, 0.01600000075995922, -0.01600000075995922, 0.9920000471174717, 0.0, 0.0, 0.0, 0.0, 0.0, 1.6670469622995105E9, 0.0, 2022-10-29 14:36:02.299
73.0, -6397.330748004839, -8710.225126851816, 9295.798092463985, 2909.902088573668, 0.01600000075995922, -0.01600000075995922, 0.9920000471174717, 0.0, 0.0, 0.0, 0.0, 0.0, 1.6670469622995105E9, 0.0, 2022-10-29 14:36:02.299
74.0, -6452.071663656272, -8868.939001171384, 9221.510589694139, 2749.219156927429, 0.01600000075995922, -0.01600000075995922, 0.9920000471174717, 0.0, 0.0, 0.0, 0.0, 0.0, 1.667046962313085E9, 0.0, 2022-10-29 14:36:02.313
74.0, -6289.634718930814, -8626.8870661892, 9293.464394891635, 2629.6321159442887, 0.01600000075995922, -0.01600000075995922, 0.9920000471174717, 0.0, 0.0, 0.0, 0.0, 0.0, 1.667046962313085E9, 0.0, 2022-10-29 14:36:02.313
75.0, -6176.700959968846, -8458.995477378368, 9283.387234461028, 2830.2384796175174, 0.01600000075995922, -0.01600000075995922, 0.9920000471174717, 0.0, 0.0, 0.0, 0.0, 0.0, 1.6670469623288682E9, 0.0, 2022-10-29 14:36:02.328
75.0, -6399.735503676347, -8225.375146846287, 9275.352059406228, 2876.0223348750733, 0.01600000075995922, -0.01600000075995922, 0.9920000471174717, 0.0, 0.0, 0.0, 0.0, 0.0, 1.6670469623288682E9, 0.0, 2022-10-29 14:36:02.328
76.0, -6434.127623668872, -8362.797770718113, 9224.296815161128, 2781.2214808482677, 0.01600000075995922, -0.01600000075995922, 0.9920000471174717, 0.0, 0.0, 0.0, 0.0, 0.0, 1.6670469623295765E9, 0.0, 2022-10-29 14:36:02.329
76.0, -6281.780929023866, -8131.591545607429, 9315.234352533706, 2665.314501421526, 0.01600000075995922, -0.01600000075995922, 0.9920000471174717, 0.0, 0.0, 0.0, 0.0, 0.0, 1.6670469623295765E9, 0.0, 2022-10-29 14:36:02.329
77.0, -6161.386069650296, -7952.656032227445, 9292.785603049677, 2773.5378563893028, 0.01600000075995922, -0.01600000075995922, 0.9920000471174717, 0.0, 0.0, 0.0, 0.0, 0.0, 1.6670469623430514E9, 0.0, 2022-10-29 14:36:02.343
77.0, -6348.577412182465, -8180.058779083192, 9317.424063957762, 2860.93557845382, 0.01600000075995922, -0.01600000075995922, 0.9920000471174717, 0.0, 0.0, 0.0, 0.0, 0.0, 1.6670469623430514E9, 0.0, 2022-10-29 14:36:02.343
78.0, -6378.859382123686, -8312.31660111621, 9238.981532337144, 2757.8957248246297, 0.01600000075995922, -0.01600000075995922, 0.9920000471174717, 0.0, 0.0, 0.0, 0.0, 0.0, 1.6670469623587956E9, 0.0, 2022-10-29 14:36:02.358
78.0, -6257.965246106032, -8100.591514874715, 9335.139970047865, 2721.012831461616, 0.01600000075995922, -0.01600000075995922, 0.9920000471174717, 0.0, 0.0, 0.0, 0.0, 0.0, 1.6670469623587956E9, 0.0, 2022-10-29 14:36:02.358
79.0, -6149.481968091335, -7951.672438539099, 9264.367973236367, 2756.435293891933, 0.01600000075995922, -0.01600000075995922, 0.9920000471174717, 0.0, 0.0, 0.0, 0.0, 0.0, 1.6670469623595095E9, 0.0, 2022-10-29 14:36:02.359
79.0, -6325.04970156122, -8152.645312407985, 9312.945533760823, 2830.148722018581, 0.01600000075995922, -0.01600000075995922, 0.9920000471174717, 0.0, 0.0, 0.0, 0.0, 0.0, 1.6670469623595095E9, 0.0, 2022-10-29 14:36:02.359
80.0, -6371.562837310135, -8294.772730424069, 9252.716314924415, 2754.7242896622047, 0.01600000075995922, -0.01600000075995922, 1.008000047877431, 0.0, 0.0, 0.0, 0.0, 0.0, 1.6670469623894904E9, 0.0, 2022-10-29 14:36:02.389
80.0, -6259.464945988264, -8104.697925026063, 9341.41739212349, 2719.2176794828847, 0.01600000075995922, -0.01600000075995922, 1.008000047877431, 0.0, 0.0, 0.0, 0.0, 0.0, 1.6670469623894904E9, 0.0, 2022-10-29 14:36:02.389
81.0, -6148.576912302058, -7943.6578329340555, 9295.40353301866, 2775.6658594640903, 0.01600000075995922, 0.0, 1.008000047877431, 0.0, 0.0, 0.0, 0.0, 0.0, 1.6670469623903058E9, 0.0, 2022-10-29 14:36:02.390
81.0, -6307.692825866863, -8138.340195077471, 9322.630004696082, 2812.5936316265725, 0.01600000075995922, 0.0, 1.008000047877431, 0.0, 0.0, 0.0, 0.0, 0.0, 1.6670469623903058E9, 0.0, 2022-10-29 14:36:02.390
82.0, -6345.5106942187995, -8280.25443879608, 9280.980608839542, 2801.031730913557, 0.01600000075995922, 0.0, 1.008000047877431, 0.0, 0.0, 0.0, 0.0, 0.0, 1.6670469623909347E9, 0.0, 2022-10-29 14:36:02.390
82.0, -6258.896481194999, -8104.170599132311, 9338.662955806125, 2734.3306152038276, 0.01600000075995922, 0.0, 1.008000047877431, 0.0, 0.0, 0.0, 0.0, 0.0, 1.6670469623909347E9, 0.0, 2022-10-29 14:36:02.390
83.0, -6150.951748773921, -7940.609814470168, 9287.181362966076, 2778.201511634048, 0.01600000075995922, 0.0, 1.008000047877431, 0.0, 0.0, 0.0, 0.0, 0.0, 1.6670469624031332E9, 0.0, 2022-10-29 14:36:02.403
83.0, -6286.0762041229755, -8121.25633207988, 9320.750704968348, 2768.8985104942694, 0.01600000075995922, 0.0, 1.008000047877431, 0.0, 0.0, 0.0, 0.0, 0.0, 1.6670469624031332E9, 0.0, 2022-10-29 14:36:02.403
