%OpenBCI Raw EEG Data
%Number of channels = 4
%Sample Rate = 200 Hz
%Board = OpenBCI_GUI$BoardGanglionBLE
Sample Index, EXG Channel 0, EXG Channel 1, EXG Channel 2, EXG Channel 3, Accel Channel 0, Accel Channel 1, Accel Channel 2, Other, Other, Other, Other, Other, Timestamp, Other, Timestamp (Formatted)
0.0, 1451.9394898475148, 1386.5417292723432, 1785.2244142987765, 307.09814496152103, 0.0, 0.0, 0.0, 0.0, 0.0, 0.0, 0.0, 0.0, 1.6670471204485664E9, 0.0, 2022-10-29 14:38:40.448
1.0, 1666.723814252764, 1609.1125253853388, 1856.4751183046028, 495.36844863090664, 0.0, 0.03200000151991844, 0.0, 0.0, 0.0, 0.0, 0.0, 0.0, 1.667047120461739E9, 0.0, 2022-10-29 14:38:40.461
1.0, 1532.8410056889988, 1511.215034195222, 1703.6272770655341, 264.11173487082124, 0.0, 0.03200000151991844, 0.0, 0.0, 0.0, 0.0, 0.0, 0.0, 1.667047120461739E9, 0.0, 2022-10-29 14:38:40.461
2.0, 1535.3691780590452, 1527.0909095071256, 1686.455526418984, 335.3699186765589, 0.0, 0.03200000151991844, 0.0, 0.0, 0.0, 0.0, 0.0, 0.0, 1.6670471204785607E9, 0.0, 2022-10-29 14:38:40.478
2.0, 1555.6543954187073, 1481.4080315483734, 1840.3636292954907, 303.42182330507785, 0.0, 0.03200000151991844, 0.0, 0.0, 0.0, 0.0, 0.0, 0.0, 1.6670471204785607E9, 0.0, 2022-10-29 14:38:40.478
3.0, 1316.6074700509198, 1254.5008214367554, 1941.6120708459057, 497.22343900892884, 0.0, 0.03200000151991844, 0.0, 0.0, 0.0, 0.0, 0.0, 0.0, 1.6670471204792023E9, 0.0, 2022-10-29 14:38:40.479
3.0, 1155.101760414429, 1138.337658863049, 1762.6672077160329, 260.62988801207393, 0.0, 0.03200000151991844, 0.0, 0.0, 0.0, 0.0, 0.0, 0.0, 1.6670471204792023E9, 0.0, 2022-10-29 14:38:40.479
4.0, 1214.2856772132218, 1203.681190888863, 1794.710670536384, 324.6177063039504, 0.0, 0.03200000151991844, 0.0, 0.0, 0.0, 0.0, 0.0, 0.0, 1.6670471204915743E9, 0.0, 2022-10-29 14:38:40.491
4.0, 1325.3569659972563, 1244.3039842075668, 1966.3421593029052, 278.78710229694843, 0.0, 0.03200000151991844, 0.0, 0.0, 0.0, 0.0, 0.0, 0.0, 1.6670471204915743E9, 0.0, 2022-10-29 14:38:40.491
5.0, 1154.3836996229365, 1085.4218143899925, 2111.1529555371962, 478.1499492349103, 0.0, 0.03200000151991844, 0.0, 0.0, 0.0, 0.0, 0.0, 0.0, 1.667047120507332E9, 0.0, 2022-10-29 14:38:40.507
5.0, 1048.1873704311438, 1020.891710604541, 2025.8888463974, 300.94226963445544, 0.0, 0.03200000151991844, 0.0, 0.0, 0.0, 0.0, 0.0, 0.0, 1.667047120507332E9, 0.0, 2022-10-29 14:38:40.507
6.0, 974.9956583483145, 959.3385671838187, 1903.3940331987105, 355.3260248401202, 0.0, 0.03200000151991844, 0.0, 0.0, 0.0, 0.0, 0.0, 0.0, 1.667047120507973E9, 0.0, 2022-10-29 14:38:40.507
6.0, 1057.9615989653394, 984.7399676828645, 2091.71295556752, 326.72513992898166, 0.0, 0.03200000151991844, 0.0, 0.0, 0.0, 0.0, 0.0, 0.0, 1.667047120507973E9, 0.0, 2022-10-29 14:38:40.507
7.0, 1213.2927337749861, 1134.12840146292, 2138.3476380649954, 552.1962284576148, 0.0, 0.03200000151991844, 0.0, 0.0, 0.0, 0.0, 0.0, 0.0, 1.6670471205216215E9, 0.0, 2022-10-29 14:38:40.521
7.0, 1007.155058067292, 985.783399770502, 1949.761312849354, 332.61922225914896, 0.0, 0.03200000151991844, 0.0, 0.0, 0.0, 0.0, 0.0, 0.0, 1.6670471205216215E9, 0.0, 2022-10-29 14:38:40.521
8.0, 968.4489634758793, 954.7328803883865, 1927.1068688677624, 383.0125042120926, 0.0, 0.03200000151991844, 0.0, 0.0, 0.0, 0.0, 0.0, 0.0, 1.667047120537202E9, 0.0, 2022-10-29 14:38:40.537
8.0, 1028.4369587651454, 945.0353198032826, 2073.2285000365227, 336.9014077084139, 0.0, 0.03200000151991844, 0.0, 0.0, 0.0, 0.0, 0.0, 0.0, 1.667047120537202E9, 0.0, 2022-10-29 14:38:40.537
9.0, 1118.7349732453004, 1046.9120645462535, 2086.308800131548, 569.9682330470532, 0.0, 0.03200000151991844, 0.0, 0.0, 0.0, 0.0, 0.0, 0.0, 1.667047120537949E9, 0.0, 2022-10-29 14:38:40.537
9.0, 1344.0003672763705, 813.4058009628206, 1859.7213514661416, 338.5619232887402, 0.0, 0.03200000151991844, 0.0, 0.0, 0.0, 0.0, 0.0, 0.0, 1.667047120537949E9, 0.0, 2022-10-29 14:38:40.537
10.0, 1283.8459464390762, 776.954866044689, 1773.8775578332134, 367.64899519411847, 0.0, 0.03200000151991844, 0.9920000471174717, 0.0, 0.0, 0.0, 0.0, 0.0, 1.6670471205515156E9, 0.0, 2022-10-29 14:38:40.551
10.0, 1398.7768119773827, 827.1555431499146, 1992.3213743451051, 329.14485520031303, 0.0, 0.03200000151991844, 0.9920000471174717, 0.0, 0.0, 0.0, 0.0, 0.0, 1.6670471205515156E9, 0.0, 2022-10-29 14:38:40.551
11.0, 1529.0019983844832, 948.262853465043, 2026.1319398945197, 569.9383138474077, 0.0, 0.0, 0.9920000471174717, 0.0, 0.0, 0.0, 0.0, 0.0, 1.6670471205671725E9, 0.0, 2022-10-29 14:38:40.567
11.0, 1763.2057533096522, 743.6996756386943, 1817.8400818123482, 330.10600948892534, 0.0, 0.0, 0.9920000471174717, 0.0, 0.0, 0.0, 0.0, 0.0, 1.6670471205671725E9, 0.0, 2022-10-29 14:38:40.567
12.0, 1720.5465844650753, 712.5930577572435, 1719.7256764248013, 359.1968212942593, 0.0, 0.0, 0.9920000471174717, 0.0, 0.0, 0.0, 0.0, 0.0, 1.66704712056794E9, 0.0, 2022-10-29 14:38:40.567
12.0, 1844.7823210931383, 800.8172977119684, 1960.3470996739343, 318.8152515226975, 0.0, 0.0, 0.9920000471174717, 0.0, 0.0, 0.0, 0.0, 0.0, 1.66704712056794E9, 0.0, 2022-10-29 14:38:40.567
13.0, 2008.7227056007832, 967.0465009924956, 2039.9938790802844, 90.98241617204621, 0.0, 0.0, 0.9920000471174717, 0.0, 0.0, 0.0, 0.0, 0.0, 1.6670471205815933E9, 0.0, 2022-10-29 14:38:40.581
13.0, 2201.731462514028, 1176.196666114498, 2262.1813354478218, -153.5023237313144, 0.0, 0.0, 0.9920000471174717, 0.0, 0.0, 0.0, 0.0, 0.0, 1.6670471205815933E9, 0.0, 2022-10-29 14:38:40.581
14.0, 2126.9016742506064, 1133.5561967696995, 2179.08262838237, -119.58330108318478, 0.0, 0.0, 0.9920000471174717, 0.0, 0.0, 0.0, 0.0, 0.0, 1.6670471205972896E9, 0.0, 2022-10-29 14:38:40.597
14.0, 2288.8169029322453, 1224.2412908952683, 2395.6938939159736, -182.19857609132305, 0.0, 0.0, 0.9920000471174717, 0.0, 0.0, 0.0, 0.0, 0.0, 1.6670471205972896E9, 0.0, 2022-10-29 14:38:40.597
15.0, 2479.53497112263, 1396.1551421084441, 2516.0943631394766, -395.6028774129227, 0.0, 0.0, 0.9920000471174717, 0.0, 0.0, 0.0, 0.0, 0.0, 1.6670471205979743E9, 0.0, 2022-10-29 14:38:40.597
15.0, 2631.3599497238174, 1621.3719174400903, 2700.108660659287, -160.69415134610608, 0.0, 0.0, 0.9920000471174717, 0.0, 0.0, 0.0, 0.0, 0.0, 1.6670471205979743E9, 0.0, 2022-10-29 14:38:40.597
16.0, 2567.6040052291937, 1564.4412903646007, 2625.8922159885988, -109.3135358048603, 0.0, 0.0, 0.9920000471174717, 0.0, 0.0, 0.0, 0.0, 0.0, 1.6670471206115477E9, 0.0, 2022-10-29 14:38:40.611
16.0, 2727.200495938305, 1667.9953802376986, 2849.444735839963, -175.2835010732524, 0.0, 0.0, 0.9920000471174717, 0.0, 0.0, 0.0, 0.0, 0.0, 1.6670471206115477E9, 0.0, 2022-10-29 14:38:40.611
17.0, 2923.5022347625345, 1869.9294083951972, 2951.609452879522, -391.95273505616933, 0.0, 0.0, 0.9920000471174717, 0.0, 0.0, 0.0, 0.0, 0.0, 1.6670471206272433E9, 0.0, 2022-10-29 14:38:40.627
17.0, 3060.648106037639, 2050.0616897610016, 3160.1275749090128, -636.7366669559851, 0.0, 0.0, 0.9920000471174717, 0.0, 0.0, 0.0, 0.0, 0.0, 1.6670471206272433E9, 0.0, 2022-10-29 14:38:40.627
18.0, 2943.2806956782006, 1957.0260685132816, 3062.159025619738, -618.2821306246333, 0.0, 0.0, 0.9920000471174717, 0.0, 0.0, 0.0, 0.0, 0.0, 1.667047120627937E9, 0.0, 2022-10-29 14:38:40.627
18.0, 3171.2238580775447, 2114.266422250308, 2836.790784339886, -688.7287561399862, 0.0, 0.0, 0.9920000471174717, 0.0, 0.0, 0.0, 0.0, 0.0, 1.667047120627937E9, 0.0, 2022-10-29 14:38:40.627
19.0, 3358.617155207321, 2308.44015799975, 2902.8542471071705, -923.779598405119, 0.0, 0.0, 0.9920000471174717, 0.0, 0.0, 0.0, 0.0, 0.0, 1.6670471206415231E9, 0.0, 2022-10-29 14:38:40.641
19.0, 3511.0105986017734, 2503.872370084282, 3129.5445430213585, -1160.275912003126, 0.0, 0.0, 0.9920000471174717, 0.0, 0.0, 0.0, 0.0, 0.0, 1.6670471206415231E9, 0.0, 2022-10-29 14:38:40.641
20.0, 3346.3970321021043, 2360.8754253285006, 2996.0357244531624, -1127.4190209424123, 0.0, 0.0, 0.49600002355873585, 0.0, 0.0, 0.0, 0.0, 0.0, 1.6670471206573255E9, 0.0, 2022-10-29 14:38:40.657
20.0, 3127.6184945441782, 2558.794670883566, 2798.137048347853, -1217.0475933304988, 0.0, 0.0, 0.49600002355873585, 0.0, 0.0, 0.0, 0.0, 0.0, 1.6670471206573255E9, 0.0, 2022-10-29 14:38:40.657
21.0, 3355.638324892614, 2793.796894449275, 2903.9631274440326, -1428.974634169601, 0.0, 0.0, 0.49600002355873585, 0.0, 0.0, 0.0, 0.0, 0.0, 1.6670471206580317E9, 0.0, 2022-10-29 14:38:40.658
21.0, 3482.888420884963, 2966.539133502636, 3107.9335311274044, -1647.003321786411, 0.0, 0.0, 0.49600002355873585, 0.0, 0.0, 0.0, 0.0, 0.0, 1.6670471206580317E9, 0.0, 2022-10-29 14:38:40.658
22.0, 3295.177232258953, 2795.362042580731, 3008.8205724516883, -1619.397250263486, 0.0, 0.0, 0.49600002355873585, 0.0, 0.0, 0.0, 0.0, 0.0, 1.6670471206715727E9, 0.0, 2022-10-29 14:38:40.671
22.0, 3087.5473364689387, 3015.7431272696704, 3241.06087990012, -1721.6629446018487, 0.0, 0.0, 0.49600002355873585, 0.0, 0.0, 0.0, 0.0, 0.0, 1.6670471206715727E9, 0.0, 2022-10-29 14:38:40.671
23.0, 2877.6828504553996, 2806.2114923521876, 3413.479617607314, -1904.1307934899814, 0.0, 0.0, 0.49600002355873585, 0.0, 0.0, 0.0, 0.0, 0.0, 1.6670471207035897E9, 0.0, 2022-10-29 14:38:40.703
23.0, 2967.0888987961225, 2931.4831812679768, 3594.8572856583633, -2148.4397580954246, 0.0, 0.0, 0.49600002355873585, 0.0, 0.0, 0.0, 0.0, 0.0, 1.6670471207035897E9, 0.0, 2022-10-29 14:38:40.703
24.0, 2751.5678140996024, 2764.2180256997235, 3422.778878847137, -2138.4897542633116, 0.0, 0.0, 0.49600002355873585, 0.0, 0.0, 0.0, 0.0, 0.0, 1.6670471207042866E9, 0.0, 2022-10-29 14:38:40.704
24.0, 2572.76132726809, 3001.047190393787, 3233.949460134376, -2245.2545482483692, 0.0, 0.0, 0.49600002355873585, 0.0, 0.0, 0.0, 0.0, 0.0, 1.6670471207042866E9, 0.0, 2022-10-29 14:38:40.704
25.0, 2407.087499130983, 2842.4679524726234, 3422.5806641494855, -2424.9997499687597, 0.0, 0.0, 0.49600002355873585, 0.0, 0.0, 0.0, 0.0, 0.0, 1.6670471207052193E9, 0.0, 2022-10-29 14:38:40.705
25.0, 2450.6797730145045, 2907.336517204065, 3558.219355742447, -2651.338495287113, 0.0, 0.0, 0.49600002355873585, 0.0, 0.0, 0.0, 0.0, 0.0, 1.6670471207052193E9, 0.0, 2022-10-29 14:38:40.705
26.0, 2688.425213197712, 2674.237902715802, 3406.5533228893764, -2614.85390126938, 0.0, 0.0, 0.49600002355873585, 0.0, 0.0, 0.0, 0.0, 0.0, 1.6670471207057855E9, 0.0, 2022-10-29 14:38:40.705
26.0, 2524.5035281898454, 2464.0199961564504, 3194.016678357497, -2759.2869676081464, 0.0, 0.0, 0.49600002355873585, 0.0, 0.0, 0.0, 0.0, 0.0, 1.6670471207057855E9, 0.0, 2022-10-29 14:38:40.705
27.0, 2412.1606734208763, 2320.333039858844, 2949.8199107507244, -2921.4135006372817, 0.0, 0.0, 0.49600002355873585, 0.0, 0.0, 0.0, 0.0, 0.0, 1.6670471207165911E9, 0.0, 2022-10-29 14:38:40.716
27.0, 2408.748014711309, 2391.035848521162, 3052.098694738932, -3142.5575249171816, 0.0, 0.0, 0.49600002355873585, 0.0, 0.0, 0.0, 0.0, 0.0, 1.6670471207165911E9, 0.0, 2022-10-29 14:38:40.716
28.0, 2613.1223275898956, 2611.454332209658, 2847.468198713381, -3115.744312184863, 0.0, 0.0, 0.49600002355873585, 0.0, 0.0, 0.0, 0.0, 0.0, 1.6670471207315814E9, 0.0, 2022-10-29 14:38:40.731
28.0, 2471.273532120511, 2416.4166795704514, 2672.4277911372483, -3270.0357548068278, 0.0, 0.0, 0.49600002355873585, 0.0, 0.0, 0.0, 0.0, 0.0, 1.6670471207315814E9, 0.0, 2022-10-29 14:38:40.731
29.0, 2432.483289780095, 2373.9650751734152, 2470.884582525119, -3423.250106241554, 0.0, 0.0, 0.49600002355873585, 0.0, 0.0, 0.0, 0.0, 0.0, 1.667047120747419E9, 0.0, 2022-10-29 14:38:40.747
29.0, 2401.234555700328, 2374.5896384660155, 2569.1242745611817, -3625.8255272414535, 0.0, 0.0, 0.49600002355873585, 0.0, 0.0, 0.0, 0.0, 0.0, 1.667047120747419E9, 0.0, 2022-10-29 14:38:40.747
30.0, 2551.3279606220312, 2568.7989032650366, 2327.233155277092, -3594.681510360446, 0.0, 0.0, 0.7520000357180834, 0.0, 0.0, 0.0, 0.0, 0.0, 1.667047120747937E9, 0.0, 2022-10-29 14:38:40.747
30.0, 2454.3467449210584, 2393.7659754888155, 2159.4855526145548, -3753.217739432119, 0.0, 0.0, 0.7520000357180834, 0.0, 0.0, 0.0, 0.0, 0.0, 1.667047120747937E9, 0.0, 2022-10-29 14:38:40.747
31.0, 2453.5351866306737, 2404.9800655059516, 1974.715795303695, -3910.5048419185914, 0.0, -0.01600000075995922, 0.7520000357180834, 0.0, 0.0, 0.0, 0.0, 0.0, 1.6670471207615511E9, 0.0, 2022-10-29 14:38:40.761
31.0, 2387.8307542591356, 2380.844621141907, 2069.679334978573, -4102.997492637951, 0.0, -0.01600000075995922, 0.7520000357180834, 0.0, 0.0, 0.0, 0.0, 0.0, 1.6670471207615511E9, 0.0, 2022-10-29 14:38:40.761
32.0, 2496.059719076846, 2510.6827279035933, 2290.314732864499, -4060.663695089519, 0.0, -0.01600000075995922, 0.7520000357180834, 0.0, 0.0, 0.0, 0.0, 0.0, 1.6670471207771845E9, 0.0, 2022-10-29 14:38:40.777
32.0, 2427.857033534907, 2364.8210197817534, 2167.853578765411, -4271.3079502438195, 0.0, -0.01600000075995922, 0.7520000357180834, 0.0, 0.0, 0.0, 0.0, 0.0, 1.6670471207771845E9, 0.0, 2022-10-29 14:38:40.777
33.0, 2473.7287764414214, 2421.8900231556036, 1973.2965032705106, -4404.510097015649, 0.0, -0.01600000075995922, 0.7520000357180834, 0.0, 0.0, 0.0, 0.0, 0.0, 1.6670471207779357E9, 0.0, 2022-10-29 14:38:40.777
33.0, 2394.216633433476, 2389.418341790326, 2080.3137405025773, -4570.165225652978, 0.0, -0.01600000075995922, 0.7520000357180834, 0.0, 0.0, 0.0, 0.0, 0.0, 1.6670471207779357E9, 0.0, 2022-10-29 14:38:40.777
34.0, 2444.2901539402083, 2455.883843802847, 2269.380642862525, -4525.004063738044, 0.0, -0.01600000075995922, 0.7520000357180834, 0.0, 0.0, 0.0, 0.0, 0.0, 1.6670471207916112E9, 0.0, 2022-10-29 14:38:40.791
34.0, 2409.1781032062136, 2362.7472452563234, 2111.8990655783564, -4739.074067251757, 0.0, -0.01600000075995922, 0.7520000357180834, 0.0, 0.0, 0.0, 0.0, 0.0, 1.6670471207916112E9, 0.0, 2022-10-29 14:38:40.791
35.0, 2488.192839520052, 2421.5515622096136, 2001.4373804870993, -4872.736221718136, 0.0, -0.01600000075995922, 0.7520000357180834, 0.0, 0.0, 0.0, 0.0, 0.0, 1.667047120807316E9, 0.0, 2022-10-29 14:38:40.807
35.0, 2374.146460321266, 2380.0405426514335, 2079.848122958094, -5023.813220328186, 0.0, -0.01600000075995922, 0.7520000357180834, 0.0, 0.0, 0.0, 0.0, 0.0, 1.667047120807316E9, 0.0, 2022-10-29 14:38:40.807
36.0, 2370.083059019409, 2383.5710082096048, 2243.846475915052, -4993.226448540576, 0.0, -0.01600000075995922, 0.7520000357180834, 0.0, 0.0, 0.0, 0.0, 0.0, 1.6670471208079562E9, 0.0, 2022-10-29 14:38:40.807
36.0, 2377.600257930346, 2330.8589882841334, 2104.9970802101307, -5218.8116040178575, 0.0, -0.01600000075995922, 0.7520000357180834, 0.0, 0.0, 0.0, 0.0, 0.0, 1.6670471208079562E9, 0.0, 2022-10-29 14:38:40.807
37.0, 2518.222366214264, 2481.197356652934, 2006.0505470824428, -5365.1183602344245, 0.0, -0.01600000075995922, 0.7520000357180834, 0.0, 0.0, 0.0, 0.0, 0.0, 1.6670471208215685E9, 0.0, 2022-10-29 14:38:40.821
37.0, 2397.507745394483, 2385.4054291378707, 2090.6957027795725, -5499.769718239084, 0.0, -0.01600000075995922, 0.7520000357180834, 0.0, 0.0, 0.0, 0.0, 0.0, 1.6670471208215685E9, 0.0, 2022-10-29 14:38:40.821
38.0, 2325.2136093010195, 2328.355125263799, 2236.4358641528524, -5449.974820279051, 0.0, -0.01600000075995922, 0.7520000357180834, 0.0, 0.0, 0.0, 0.0, 0.0, 1.6670471208372128E9, 0.0, 2022-10-29 14:38:40.837
38.0, 2379.816148654092, 2322.937880177982, 2113.9485307540745, -5213.897375476081, 0.0, -0.01600000075995922, 0.7520000357180834, 0.0, 0.0, 0.0, 0.0, 0.0, 1.6670471208372128E9, 0.0, 2022-10-29 14:38:40.837
39.0, 2610.3342321729288, 2546.761542776134, 2059.2562338020653, -5352.290503386408, 0.0, -0.01600000075995922, 0.7520000357180834, 0.0, 0.0, 0.0, 0.0, 0.0, 1.6670471208380225E9, 0.0, 2022-10-29 14:38:40.838
39.0, 2433.6744479159825, 2421.581481409259, 2133.6652833204716, -5463.952696363442, 0.0, -0.01600000075995922, 0.7520000357180834, 0.0, 0.0, 0.0, 0.0, 0.0, 1.6670471208380225E9, 0.0, 2022-10-29 14:38:40.838
40.0, 2299.3316316576675, 2297.575748628471, 2214.514440562576, -5395.140407128725, 0.0, -0.01600000075995922, 0.8800000417977571, 0.0, 0.0, 0.0, 0.0, 0.0, 1.6670471208516195E9, 0.0, 2022-10-29 14:38:40.851
40.0, 2341.779496154748, 2298.492024117615, 2060.7353642345406, -5211.167248508427, 0.0, -0.01600000075995922, 0.8800000417977571, 0.0, 0.0, 0.0, 0.0, 0.0, 1.6670471208516195E9, 0.0, 2022-10-29 14:38:40.851
41.0, 2194.808907696046, 2141.9884306718595, 2108.379819720052, -5351.086255600676, 0.0, 0.0, 0.8800000417977571, 0.0, 0.0, 0.0, 0.0, 0.0, 1.6670471208673253E9, 0.0, 2022-10-29 14:38:40.867
41.0, 1964.4703393750824, 1963.716749534011, 2124.8503391249105, -5441.2328041326255, 0.0, 0.0, 0.8800000417977571, 0.0, 0.0, 0.0, 0.0, 0.0, 1.6670471208673253E9, 0.0, 2022-10-29 14:38:40.867
42.0, 1762.6372885163873, 1756.0232754447497, 2180.79176266212, -5365.613896978553, 0.0, 0.0, 0.8800000417977571, 0.0, 0.0, 0.0, 0.0, 0.0, 1.6670471208680208E9, 0.0, 2022-10-29 14:38:40.868
42.0, 1815.5119940899312, 1767.175657112617, 2060.926099132281, -5217.943947228137, 0.0, 0.0, 0.8800000417977571, 0.0, 0.0, 0.0, 0.0, 0.0, 1.6670471208680208E9, 0.0, 2022-10-29 14:38:40.868
43.0, 1830.0396354678087, 1777.4921711403877, 2179.0863682823256, -5366.88359301351, 0.0, 0.0, 0.8800000417977571, 0.0, 0.0, 0.0, 0.0, 0.0, 1.667047120881624E9, 0.0, 2022-10-29 14:38:40.881
43.0, 1936.6006049052812, 1948.7309704115614, 2106.6762952902354, -5387.643777667545, 0.0, 0.0, 0.8800000417977571, 0.0, 0.0, 0.0, 0.0, 0.0, 1.667047120881624E9, 0.0, 2022-10-29 14:38:40.881
44.0, 2074.711370368954, 2000.4724862985313, 1911.6947411503643, -5532.634089099709, 0.0, 0.0, 0.8800000417977571, 0.0, 0.0, 0.0, 0.0, 0.0, 1.667047120897316E9, 0.0, 2022-10-29 14:38:40.897
44.0, 2095.5557027719915, 2063.6674457998015, 2019.8769572186284, -5600.318798497785, 0.0, 0.0, 0.8800000417977571, 0.0, 0.0, 0.0, 0.0, 0.0, 1.667047120897316E9, 0.0, 2022-10-29 14:38:40.897
45.0, 2257.800042649731, 2251.6572569725104, 2180.8347715116106, -5523.858413853683, 0.0, 0.0, 0.8800000417977571, 0.0, 0.0, 0.0, 0.0, 0.0, 1.6670471208981323E9, 0.0, 2022-10-29 14:38:40.898
45.0, 2441.967676067725, 2406.4554560384713, 2156.9648600444198, -5491.055751342326, 0.0, 0.0, 0.8800000417977571, 0.0, 0.0, 0.0, 0.0, 0.0, 1.6670471208981323E9, 0.0, 2022-10-29 14:38:40.898
46.0, 2570.9736550892703, 2529.2756405333057, 2068.9350948873907, -5452.658198497258, 0.0, 0.0, 0.8800000417977571, 0.0, 0.0, 0.0, 0.0, 0.0, 1.667047120911579E9, 0.0, 2022-10-29 14:38:40.911
46.0, 2563.4190571787767, 2542.9281453215517, 2267.6490691830404, -5470.12353129033, 0.0, 0.0, 0.8800000417977571, 0.0, 0.0, 0.0, 0.0, 0.0, 1.667047120911579E9, 0.0, 2022-10-29 14:38:40.911
47.0, 2351.705190637149, 2316.5276916539297, 2403.104505678173, -5251.977036824916, 0.0, 0.0, 0.8800000417977571, 0.0, 0.0, 0.0, 0.0, 0.0, 1.6670471209273455E9, 0.0, 2022-10-29 14:38:40.927
47.0, 2159.1770108682103, 2106.8932094876654, 2412.671169764828, -5113.82513246173, 0.0, 0.0, 0.8800000417977571, 0.0, 0.0, 0.0, 0.0, 0.0, 1.6670471209273455E9, 0.0, 2022-10-29 14:38:40.927
48.0, 2292.644690536894, 2267.980050329119, 2348.976933619473, -4999.144840220455, 0.0, 0.0, 0.8800000417977571, 0.0, 0.0, 0.0, 0.0, 0.0, 1.667047120927987E9, 0.0, 2022-10-29 14:38:40.927
48.0, 2306.3158948249184, 2294.9017201601528, 2588.3361406335607, -5061.653528079856, 0.0, 0.0, 0.8800000417977571, 0.0, 0.0, 0.0, 0.0, 0.0, 1.667047120927987E9, 0.0, 2022-10-29 14:38:40.927
49.0, 2261.143513210118, 2263.952178076841, 2777.406782893464, -4880.173012780026, 0.0, 0.0, 0.8800000417977571, 0.0, 0.0, 0.0, 0.0, 0.0, 1.6670471209415798E9, 0.0, 2022-10-29 14:38:40.941
49.0, 2111.6802814309485, 2081.6713241864927, 2864.7222271589562, -4700.268865311518, 0.0, 0.0, 0.8800000417977571, 0.0, 0.0, 0.0, 0.0, 0.0, 1.6670471209415798E9, 0.0, 2022-10-29 14:38:40.941
50.0, 2257.556949152611, 2220.2140480950475, 2804.7417116696015, -4587.522101347335, 0.0, 0.0, 0.944000044837594, 0.0, 0.0, 0.0, 0.0, 0.0, 1.6670471209736032E9, 0.0, 2022-10-29 14:38:40.973
50.0, 2314.820427324157, 2325.35198559938, 3045.1929694707505, -4609.449134787545, 0.0, 0.0, 0.944000044837594, 0.0, 0.0, 0.0, 0.0, 0.0, 1.6670471209736032E9, 0.0, 2022-10-29 14:38:40.973
51.0, 2288.0520933913067, 2303.471700908616, 2812.139233781956, -4374.7872421178035, 0.0, 0.0, 0.944000044837594, 0.0, 0.0, 0.0, 0.0, 0.0, 1.6670471209743783E9, 0.0, 2022-10-29 14:38:40.974
51.0, 2081.8283999846317, 2058.9663915554993, 2834.720749714412, -4166.871243981179, 0.0, 0.0, 0.944000044837594, 0.0, 0.0, 0.0, 0.0, 0.0, 1.6670471209743783E9, 0.0, 2022-10-29 14:38:40.974
52.0, 2211.051293203607, 2175.6718396227807, 2790.780665135011, -4050.5379159594886, 0.0, 0.0, 0.944000044837594, 0.0, 0.0, 0.0, 0.0, 0.0, 1.6670471209750812E9, 0.0, 2022-10-29 14:38:40.975
52.0, 2286.4757255599834, 2297.744044126477, 2554.131015638821, -4084.3054726594128, 0.0, 0.0, 0.944000044837594, 0.0, 0.0, 0.0, 0.0, 0.0, 1.6670471209750812E9, 0.0, 2022-10-29 14:38:40.975
53.0, 2240.918134249747, 2246.9169337786734, 2764.305913348682, -3857.38517289795, 0.0, 0.0, 0.944000044837594, 0.0, 0.0, 0.0, 0.0, 0.0, 1.6670471209758317E9, 0.0, 2022-10-29 14:38:40.975
53.0, 2014.009054188151, 2479.4078145241365, 2822.75680975616, -3662.472806907259, 0.0, 0.0, 0.944000044837594, 0.0, 0.0, 0.0, 0.0, 0.0, 1.6670471209758317E9, 0.0, 2022-10-29 14:38:40.975
54.0, 2169.4636056963354, 2621.4211655915715, 2759.545020705089, -3543.8618798125535, 0.0, 0.0, 0.944000044837594, 0.0, 0.0, 0.0, 0.0, 0.0, 1.667047120986575E9, 0.0, 2022-10-29 14:38:40.986
54.0, 2285.2826974741183, 2773.498587439768, 2559.123782079667, -3587.3905753968284, 0.0, 0.0, 0.944000044837594, 0.0, 0.0, 0.0, 0.0, 0.0, 1.667047120986575E9, 0.0, 2022-10-29 14:38:40.986
55.0, 2240.989192348905, 2729.9642820055597, 2315.037341521587, -3831.789297601208, 0.0, 0.0, 0.944000044837594, 0.0, 0.0, 0.0, 0.0, 0.0, 1.6670471210015323E9, 0.0, 2022-10-29 14:38:41.001
55.0, 2460.476440948434, 2924.9402262954973, 2270.7213969966397, -3641.125457960181, 0.0, 0.0, 0.944000044837594, 0.0, 0.0, 0.0, 0.0, 0.0, 1.6670471210015323E9, 0.0, 2022-10-29 14:38:41.001
56.0, 2627.965990514029, 3114.6373017979786, 2261.6670992039144, -3540.394992553629, 0.0, 0.0, 0.944000044837594, 0.0, 0.0, 0.0, 0.0, 0.0, 1.667047121017424E9, 0.0, 2022-10-29 14:38:41.017
56.0, 2742.1208268115297, 3237.1844735960476, 2061.212201478891, -3587.58879009448, 0.0, 0.0, 0.944000044837594, 0.0, 0.0, 0.0, 0.0, 0.0, 1.667047121017424E9, 0.0, 2022-10-29 14:38:41.017
57.0, 2688.084882301744, 3181.67500850372, 2278.788361201063, -3344.2017108281143, 0.0, 0.0, 0.944000044837594, 0.0, 0.0, 0.0, 0.0, 0.0, 1.6670471210180204E9, 0.0, 2022-10-29 14:38:41.018
57.0, 2898.2971790111624, 3373.812368727289, 2273.782505110372, -3152.490699199494, 0.0, 0.0, 0.944000044837594, 0.0, 0.0, 0.0, 0.0, 0.0, 1.6670471210180204E9, 0.0, 2022-10-29 14:38:41.018
58.0, 3072.443750497885, 3534.0203330791555, 2248.033293915447, -3049.0749856247567, 0.0, 0.0, 0.944000044837594, 0.0, 0.0, 0.0, 0.0, 0.0, 1.66704712103166E9, 0.0, 2022-10-29 14:38:41.031
58.0, 3198.454069654923, 3678.344942319207, 2053.891347315628, -3103.606466878671, 0.0, 0.0, 0.944000044837594, 0.0, 0.0, 0.0, 0.0, 0.0, 1.66704712103166E9, 0.0, 2022-10-29 14:38:41.031
59.0, 3135.5882213497534, 3627.5776703706942, 2271.370269638952, -3328.62128761271, 0.0, 0.0, 0.944000044837594, 0.0, 0.0, 0.0, 0.0, 0.0, 1.6670471210474932E9, 0.0, 2022-10-29 14:38:41.047
59.0, 3345.063757767901, 3817.654345718678, 2276.4041749793105, -3137.4114225781523, 0.0, 0.0, 0.944000044837594, 0.0, 0.0, 0.0, 0.0, 0.0, 1.6670471210474932E9, 0.0, 2022-10-29 14:38:41.047
60.0, 3544.0208255606703, 4015.8559537203982, 2231.4318780121394, -3038.90245774528, 0.0, 0.0, 0.9760000463575125, 0.0, 0.0, 0.0, 0.0, 0.0, 1.6670471210479896E9, 0.0, 2022-10-29 14:38:41.047
60.0, 3701.113453249447, 4172.043525619898, 2061.947091820184, -3063.784012150485, 0.0, 0.0, 0.9760000463575125, 0.0, 0.0, 0.0, 0.0, 0.0, 1.6670471210479896E9, 0.0, 2022-10-29 14:38:41.047
61.0, 3628.157354863826, 4127.409689598717, 2258.0861449963413, -2828.059987893328, 0.0, 0.0, 0.9760000463575125, 0.0, 0.0, 0.0, 0.0, 0.0, 1.6670471210617251E9, 0.0, 2022-10-29 14:38:41.061
61.0, 3865.4839262519963, 4333.279962459579, 2297.5308698290028, -2657.2138781175017, 0.0, 0.0, 0.9760000463575125, 0.0, 0.0, 0.0, 0.0, 0.0, 1.6670471210617251E9, 0.0, 2022-10-29 14:38:41.061
62.0, 4069.265464987606, 4520.964971785899, 2273.1990807172842, -2578.6011810489, 0.0, 0.0, 0.9760000463575125, 0.0, 0.0, 0.0, 0.0, 0.0, 1.6670471210772614E9, 0.0, 2022-10-29 14:38:41.077
62.0, 4203.110874551814, 4679.46006195806, 2105.595464203041, -2611.9049901543185, 0.0, 0.0, 0.9760000463575125, 0.0, 0.0, 0.0, 0.0, 0.0, 1.6670471210772614E9, 0.0, 2022-10-29 14:38:41.077
63.0, 4150.847642621025, 4635.334852330852, 2309.034802092705, -2848.479841651395, 0.0, 0.0, 0.9760000463575125, 0.0, 0.0, 0.0, 0.0, 0.0, 1.6670471210780132E9, 0.0, 2022-10-29 14:38:41.078
63.0, 4358.161516864784, 4822.490665813442, 2310.6429590736516, -2640.0926161203533, 0.0, 0.0, 0.9760000463575125, 0.0, 0.0, 0.0, 0.0, 0.0, 1.6670471210780132E9, 0.0, 2022-10-29 14:38:41.078
64.0, 4557.810466149356, 5012.741246509366, 2274.769838698674, -2529.1335243349895, 0.0, 0.0, 0.9760000463575125, 0.0, 0.0, 0.0, 0.0, 0.0, 1.6670471210916152E9, 0.0, 2022-10-29 14:38:41.091
64.0, 4661.059754176065, 5153.894420586992, 2071.812947903294, -2542.6308232750744, 0.0, 0.0, 0.9760000463575125, 0.0, 0.0, 0.0, 0.0, 0.0, 1.6670471210916152E9, 0.0, 2022-10-29 14:38:41.091
65.0, 4620.917538001668, 5135.5333817545325, 2297.4859910295345, -2322.7901541297324, 0.0, 0.0, 0.9760000463575125, 0.0, 0.0, 0.0, 0.0, 0.0, 1.6670471211072567E9, 0.0, 2022-10-29 14:38:41.107
65.0, 4856.778068607207, 5317.184062502347, 2325.206129501108, -2131.756064393092, 0.0, 0.0, 0.9760000463575125, 0.0, 0.0, 0.0, 0.0, 0.0, 1.6670471211072567E9, 0.0, 2022-10-29 14:38:41.107
66.0, 5049.223970577121, 5510.837952157948, 2300.1899386974983, -2022.3004123899154, 0.0, 0.0, 0.9760000463575125, 0.0, 0.0, 0.0, 0.0, 0.0, 1.6670471211080053E9, 0.0, 2022-10-29 14:38:41.108
66.0, 5149.556136638392, 5624.244808464311, 2082.4716627770104, -2056.90944657987, 0.0, 0.0, 0.9760000463575125, 0.0, 0.0, 0.0, 0.0, 0.0, 1.6670471211080053E9, 0.0, 2022-10-29 14:38:41.108
67.0, 5117.125594172627, 5604.829117844347, 2290.30538311461, -1873.5702010020614, 0.0, 0.0, 0.9760000463575125, 0.0, 0.0, 0.0, 0.0, 0.0, 1.6670471211216724E9, 0.0, 2022-10-29 14:38:41.121
67.0, 4884.079338283744, 5822.9139039604925, 2355.2898847446777, -1678.1379889175296, 0.0, 0.0, 0.9760000463575125, 0.0, 0.0, 0.0, 0.0, 0.0, 1.6670471211216724E9, 0.0, 2022-10-29 14:38:41.121
68.0, 5071.90646380838, 6018.086192998104, 2319.0726935737766, -1567.7735412251204, 0.0, 0.0, 0.9760000463575125, 0.0, 0.0, 0.0, 0.0, 0.0, 1.667047121137239E9, 0.0, 2022-10-29 14:38:41.137
68.0, 5173.674751452636, 6148.846185098868, 2108.636002867017, -1604.080489994958, 0.0, 0.0, 0.9760000463575125, 0.0, 0.0, 0.0, 0.0, 0.0, 1.667047121137239E9, 0.0, 2022-10-29 14:38:41.137
69.0, 5131.946817697026, 6103.464369086549, 2314.1883842316456, -1418.3925872449763, 0.0, 0.0, 0.9760000463575125, 0.0, 0.0, 0.0, 0.0, 0.0, 1.6670471211380386E9, 0.0, 2022-10-29 14:38:41.138
69.0, 4914.926033118274, 5865.750718052965, 2357.7881379150786, -1224.2992593445815, 0.0, 0.0, 0.9760000463575125, 0.0, 0.0, 0.0, 0.0, 0.0, 1.6670471211380386E9, 0.0, 2022-10-29 14:38:41.138
70.0, 5088.851950507611, 6037.518713167869, 2337.9629282499664, -1107.221691231709, 0.0, 0.0, 0.9920000471174717, 0.0, 0.0, 0.0, 0.0, 0.0, 1.6670471211515765E9, 0.0, 2022-10-29 14:38:41.151
70.0, 5150.3676949287765, 6116.234257485252, 2103.474940928165, -1096.4414296094328, 0.0, 0.0, 0.9920000471174717, 0.0, 0.0, 0.0, 0.0, 0.0, 1.6670471211515765E9, 0.0, 2022-10-29 14:38:41.151
71.0, 5105.831096306443, 6066.951725819148, 2294.42675286578, -929.0715568424203, 0.0, 0.0, 0.9920000471174717, 0.0, 0.0, 0.0, 0.0, 0.0, 1.6670471211672611E9, 0.0, 2022-10-29 14:38:41.167
71.0, 4928.827241253573, 5896.492695688736, 2366.9808120061643, -729.652611405123, 0.0, 0.0, 0.9920000471174717, 0.0, 0.0, 0.0, 0.0, 0.0, 1.6670471211672611E9, 0.0, 2022-10-29 14:38:41.167
72.0, 5083.34307787288, 6038.913695851341, 2333.912616597954, -616.7151125431992, 0.0, 0.0, 0.9920000471174717, 0.0, 0.0, 0.0, 0.0, 0.0, 1.6670471211680303E9, 0.0, 2022-10-29 14:38:41.168
72.0, 5106.446309849154, 6074.64656997798, 2092.17296326207, -639.5733810723759, 0.0, 0.0, 0.9920000471174717, 0.0, 0.0, 0.0, 0.0, 0.0, 1.6670471211680303E9, 0.0, 2022-10-29 14:38:41.168
73.0, 5082.022893188521, 6039.684115242213, 2267.9856601790525, -487.2977445265278, 0.0, 0.0, 0.9920000471174717, 0.0, 0.0, 0.0, 0.0, 0.0, 1.667047121181559E9, 0.0, 2022-10-29 14:38:41.181
73.0, 4936.901685257908, 5881.245123569388, 2369.456625776831, -281.7565828617662, 0.0, 0.0, 0.9920000471174717, 0.0, 0.0, 0.0, 0.0, 0.0, 1.667047121181559E9, 0.0, 2022-10-29 14:38:41.181
74.0, 5081.592804693617, 6030.738274548203, 2318.3172337827273, -164.8211309472099, 0.0, 0.0, 0.9920000471174717, 0.0, 0.0, 0.0, 0.0, 0.0, 1.6670471211973135E9, 0.0, 2022-10-29 14:38:41.197
74.0, 5081.013120200485, 6037.333588120062, 2554.512485434301, -169.55210439115763, 0.0, 0.0, 0.9920000471174717, 0.0, 0.0, 0.0, 0.0, 0.0, 1.6670471211973135E9, 0.0, 2022-10-29 14:38:41.197
75.0, 5068.14973430289, 6033.7077551130205, 2753.9800495710224, -44.693674420472234, 0.0, 0.0, 0.9920000471174717, 0.0, 0.0, 0.0, 0.0, 0.0, 1.6670471211980717E9, 0.0, 2022-10-29 14:38:41.198
75.0, 4953.030003816821, 5913.449402087834, 2830.7302764616907, 174.99926867661998, 0.0, 0.0, 0.9920000471174717, 0.0, 0.0, 0.0, 0.0, 0.0, 1.6670471211980717E9, 0.0, 2022-10-29 14:38:41.198
76.0, 5128.964247482363, 6060.010471501388, 2821.305728573352, 338.6685104374774, 0.0, 0.0, 0.9920000471174717, 0.0, 0.0, 0.0, 0.0, 0.0, 1.6670471212115867E9, 0.0, 2022-10-29 14:38:41.211
76.0, 5101.35630600946, 6063.812079806346, 3040.9107840214856, 347.70971858035773, 0.0, 0.0, 0.9920000471174717, 0.0, 0.0, 0.0, 0.0, 0.0, 1.6670471212115867E9, 0.0, 2022-10-29 14:38:41.211
77.0, 5106.147117852699, 6071.344238317106, 3251.6728460243903, 482.7331966306083, 0.0, 0.0, 0.9920000471174717, 0.0, 0.0, 0.0, 0.0, 0.0, 1.6670471212272441E9, 0.0, 2022-10-29 14:38:41.227
77.0, 4968.270096136257, 5907.826462504454, 3334.9155392381363, 721.0770208067261, 0.0, 0.0, 0.9920000471174717, 0.0, 0.0, 0.0, 0.0, 0.0, 1.6670471212272441E9, 0.0, 2022-10-29 14:38:41.227
78.0, 5139.342469859403, 6086.524492237251, 3320.359848610591, 858.1854930822738, 0.0, 0.0, 0.9920000471174717, 0.0, 0.0, 0.0, 0.0, 0.0, 1.6670471212280266E9, 0.0, 2022-10-29 14:38:41.228
78.0, 5066.062870127615, 6029.195565816481, 3517.248751727864, 869.5155199980363, 0.0, 0.0, 0.9920000471174717, 0.0, 0.0, 0.0, 0.0, 0.0, 1.6670471212280266E9, 0.0, 2022-10-29 14:38:41.228
79.0, 5090.170265241992, 6061.291387236211, 3713.511221602559, 958.2652158965357, 0.0, 0.0, 0.9920000471174717, 0.0, 0.0, 0.0, 0.0, 0.0, 1.6670471212415729E9, 0.0, 2022-10-29 14:38:41.241
79.0, 4947.756744879298, 5893.124915778637, 3824.829343783669, 1185.879267099779, 0.0, 0.0, 0.9920000471174717, 0.0, 0.0, 0.0, 0.0, 0.0, 1.6670471212415729E9, 0.0, 2022-10-29 14:38:41.241
80.0, 5121.368510672357, 6062.364738523494, 3807.5659655882046, 1328.85938230576, 0.0, 0.0, 0.9920000471174717, 0.0, 0.0, 0.0, 0.0, 0.0, 1.6670471212573073E9, 0.0, 2022-10-29 14:38:41.257
80.0, 5058.684047515038, 6024.917120267171, 3986.2677352209575, 1343.0766119873151, 0.0, 0.0, 0.9920000471174717, 0.0, 0.0, 0.0, 0.0, 0.0, 1.6670471212573073E9, 0.0, 2022-10-29 14:38:41.257
81.0, 5064.746425343212, 6042.027162564453, 4186.831090044696, 1458.3683778713457, 0.0, 0.0, 0.9920000471174717, 0.0, 0.0, 0.0, 0.0, 0.0, 1.6670471212580302E9, 0.0, 2022-10-29 14:38:41.258
81.0, 4947.786664078943, 5894.534858061932, 4311.261301470455, 1684.4827291923575, 0.0, 0.0, 0.9920000471174717, 0.0, 0.0, 0.0, 0.0, 0.0, 1.6670471212580302E9, 0.0, 2022-10-29 14:38:41.258
82.0, 5109.441969713662, 6062.936943216715, 4284.78280978417, 1821.2134715723805, 0.0, 0.0, 0.9920000471174717, 0.0, 0.0, 0.0, 0.0, 0.0, 1.6670471212716055E9, 0.0, 2022-10-29 14:38:41.271
82.0, 5043.466394595336, 6001.505346544553, 4486.645779842511, 1864.179312213324, 0.0, 0.0, 0.9920000471174717, 0.0, 0.0, 0.0, 0.0, 0.0, 1.6670471212716055E9, 0.0, 2022-10-29 14:38:41.271
83.0, 5047.318491549697, 6012.717566611711, 4681.2589538367465, 1970.4055606047623, 0.0, 0.0, 0.9920000471174717, 0.0, 0.0, 0.0, 0.0, 0.0, 1.667047121287267E9, 0.0, 2022-10-29 14:38:41.287
83.0, 4941.0922431582585, 5887.477666845545, 4816.602193333209, 2191.6430823835544, 0.0, 0.0, 0.9920000471174717, 0.0, 0.0, 0.0, 0.0, 0.0, 1.667047121287267E9, 0.0, 2022-10-29 14:38:41.287
84.0, 5118.64960340457, 6051.870579247829, 4790.692166440189, 2359.953539989423, 0.0, 0.0, 0.9920000471174717, 0.0, 0.0, 0.0, 0.0, 0.0, 1.6670471212879872E9, 0.0, 2022-10-29 14:38:41.287
84.0, 5037.774266862776, 6008.02399216732, 4974.132389316801, 2380.554778895341, 0.0, 0.0, 0.9920000471174717, 0.0, 0.0, 0.0, 0.0, 0.0, 1.6670471212879872E9, 0.0, 2022-10-29 14:38:41.287
85.0, 5043.81046539126, 6012.889602009673, 5182.306440550368, 2475.94279721519, 0.0, 0.0, 0.9920000471174717, 0.0, 0.0, 0.0, 0.0, 0.0, 1.6670471213016796E9, 0.0, 2022-10-29 14:38:41.301
85.0, 4944.585309716873, 5892.848163181916, 5304.649787800852, 2697.7188645876013, 0.0, 0.0, 0.9920000471174717, 0.0, 0.0, 0.0, 0.0, 0.0, 1.6670471213016796E9, 0.0, 2022-10-29 14:38:41.301
86.0, 5133.500746128615, 6091.36766267987, 5292.334297246765, 2845.4112537377514, 0.0, 0.0, 0.9920000471174717, 0.0, 0.0, 0.0, 0.0, 0.0, 1.6670471213173091E9, 0.0, 2022-10-29 14:38:41.317
86.0, 5023.379391933326, 6012.309917516541, 5476.013873720542, 2903.231977002695, 0.0, 0.0, 0.9920000471174717, 0.0, 0.0, 0.0, 0.0, 0.0, 1.6670471213173091E9, 0.0, 2022-10-29 14:38:41.317
87.0, 5058.078183722217, 6009.589140298776, 5678.731410918757, 2971.595478242729, 0.0, 0.0, 0.9920000471174717, 0.0, 0.0, 0.0, 0.0, 0.0, 1.6670471213180072E9, 0.0, 2022-10-29 14:38:41.318
87.0, 4921.281993092969, 5884.345500632655, 5783.381291478872, 3193.7791947103105, 0.0, 0.0, 0.9920000471174717, 0.0, 0.0, 0.0, 0.0, 0.0, 1.6670471213180072E9, 0.0, 2022-10-29 14:38:41.318
88.0, 5127.348610701505, 6074.685838927515, 5790.283276847098, 3333.352261056658, 0.0, 0.0, 0.9920000471174717, 0.0, 0.0, 0.0, 0.0, 0.0, 1.667047121331569E9, 0.0, 2022-10-29 14:38:41.331
88.0, 4998.172466231976, 5963.191941448487, 5962.290625559166, 3384.717916998081, 0.0, 0.0, 0.9920000471174717, 0.0, 0.0, 0.0, 0.0, 0.0, 1.667047121331569E9, 0.0, 2022-10-29 14:38:41.331
89.0, 5040.07056543557, 6008.265215714462, 6159.989217016846, 3467.670767965261, 0.0, 0.0, 0.9920000471174717, 0.0, 0.0, 0.0, 0.0, 0.0, 1.667047121347336E9, 0.0, 2022-10-29 14:38:41.347
89.0, 4919.569118913263, 5852.683507607784, 6287.785338402726, 3676.435723391827, 0.0, 0.0, 0.9920000471174717, 0.0, 0.0, 0.0, 0.0, 0.0, 1.667047121347336E9, 0.0, 2022-10-29 14:38:41.347
90.0, 5127.116736904252, 6073.545169441029, 6271.52051349543, 3828.2607019930147, 0.0, 0.0, 0.9920000471174717, 0.0, 0.0, 0.0, 0.0, 0.0, 1.6670471213480644E9, 0.0, 2022-10-29 14:38:41.348
90.0, 4996.343655153643, 5968.8466701814905, 6430.7187048592605, 3891.575338292867, 0.0, 0.0, 0.9920000471174717, 0.0, 0.0, 0.0, 0.0, 0.0, 1.6670471213480644E9, 0.0, 2022-10-29 14:38:41.348
91.0, 5045.672935569193, 6013.9648232469335, 6643.964060432743, 3963.458085391205, 0.0, 0.0, 0.9920000471174717, 0.0, 0.0, 0.0, 0.0, 0.0, 1.6670471213616965E9, 0.0, 2022-10-29 14:38:41.361
91.0, 4958.624894150533, 5919.586577915121, 6818.108761969488, 4197.661840316374, 0.0, 0.0, 0.9920000471174717, 0.0, 0.0, 0.0, 0.0, 0.0, 1.6670471213616965E9, 0.0, 2022-10-29 14:38:41.361
92.0, 5146.179006978404, 6059.004438413307, 6786.48790784413, 4335.271459185984, 0.0, 0.0, 0.9920000471174717, 0.0, 0.0, 0.0, 0.0, 0.0, 1.667047121377283E9, 0.0, 2022-10-29 14:38:41.377
92.0, 5040.223901333753, 6001.671772092581, 6979.6069918060675, 4417.3977922629565, 0.0, 0.0, 0.9920000471174717, 0.0, 0.0, 0.0, 0.0, 0.0, 1.667047121377283E9, 0.0, 2022-10-29 14:38:41.377
93.0, 5036.975798222236, 5998.34887098195, 7163.871862622909, 4447.453498256858, 0.0, 0.0, 0.9920000471174717, 0.0, 0.0, 0.0, 0.0, 0.0, 1.6670471213779993E9, 0.0, 2022-10-29 14:38:41.377
93.0, 4967.314551697578, 5913.533549836837, 7298.4783418281, 4679.417053108569, 0.0, 0.0, 0.9920000471174717, 0.0, 0.0, 0.0, 0.0, 0.0, 1.6670471213779993E9, 0.0, 2022-10-29 14:38:41.377
94.0, 5150.567779576406, 6103.61957493471, 7293.414517288096, 4828.3136900444515, 0.0, 0.0, 0.9920000471174717, 0.0, 0.0, 0.0, 0.0, 0.0, 1.667047121391705E9, 0.0, 2022-10-29 14:38:41.391
94.0, 5039.92283938732, 6017.990825549234, 7484.64495177241, 4873.639407557435, 0.0, 0.0, 0.9920000471174717, 0.0, 0.0, 0.0, 0.0, 0.0, 1.667047121391705E9, 0.0, 2022-10-29 14:38:41.391
95.0, 5047.967364192009, 5997.729917539284, 7670.622696768958, 4941.000615609344, 0.0, 0.0, 0.9920000471174717, 0.0, 0.0, 0.0, 0.0, 0.0, 1.6670471214073129E9, 0.0, 2022-10-29 14:38:41.407
95.0, 4987.453912958968, 5920.779606000986, 7804.61209248146, 5181.487402460072, 0.0, 0.0, 0.9920000471174717, 0.0, 0.0, 0.0, 0.0, 0.0, 1.6670471214073129E9, 0.0, 2022-10-29 14:38:41.407
96.0, 5160.6430700570345, 6105.457735762931, 7788.459464572836, 5299.533604661468, 0.0, 0.0, 0.9920000471174717, 0.0, 0.0, 0.0, 0.0, 0.0, 1.6670471214080253E9, 0.0, 2022-10-29 14:38:41.408
96.0, 5024.738845567219, 6001.271602797322, 7957.833923716098, 5374.464370223694, 0.0, 0.0, 0.9920000471174717, 0.0, 0.0, 0.0, 0.0, 0.0, 1.6670471214080253E9, 0.0, 2022-10-29 14:38:41.408
97.0, 5037.667679714039, 6009.966870194301, 8139.002157369629, 5426.323692959268, 0.0, 0.0, 0.9920000471174717, 0.0, 0.0, 0.0, 0.0, 0.0, 1.667047121421666E9, 0.0, 2022-10-29 14:38:41.421
97.0, 4948.491635220591, 5899.050787258428, 8282.969606163912, 5650.212803806644, 0.0, 0.0, 0.9920000471174717, 0.0, 0.0, 0.0, 0.0, 0.0, 1.667047121421666E9, 0.0, 2022-10-29 14:38:41.421
98.0, 5169.18500155583, 6106.403930451721, 8278.732299514115, 5795.975404579658, 0.0, 0.0, 0.9920000471174717, 0.0, 0.0, 0.0, 0.0, 0.0, 1.6670471214372337E9, 0.0, 2022-10-29 14:38:41.437
98.0, 5024.009565075859, 5986.674773270264, 8456.005427363794, 5871.407316735946, 0.0, 0.0, 0.9920000471174717, 0.0, 0.0, 0.0, 0.0, 0.0, 1.6670471214372337E9, 0.0, 2022-10-29 14:38:41.437
99.0, 5011.486510074232, 5981.736235378776, 8618.332045040559, 5919.3621839177795, 0.0, 0.0, 0.9920000471174717, 0.0, 0.0, 0.0, 0.0, 0.0, 1.667047121437974E9, 0.0, 2022-10-29 14:38:41.437
99.0, 4936.8586764084175, 5889.42615472246, 8765.179216800723, 6121.3167815250345, 0.0, 0.0, 0.9920000471174717, 0.0, 0.0, 0.0, 0.0, 0.0, 1.667047121437974E9, 0.0, 2022-10-29 14:38:41.437
100.0, 5161.20218510041, 6091.2853848808445, 8761.091506149154, 6265.9349729116075, 0.0, 0.0, 1.008000047877431, 0.0, 0.0, 0.0, 0.0, 0.0, 1.6670471214523056E9, 0.0, 2022-10-29 14:38:41.452
100.0, 5011.217237277422, 5975.288647855166, 8938.712444694713, 6349.246854274534, 0.0, 0.0, 1.008000047877431, 0.0, 0.0, 0.0, 0.0, 0.0, 1.6670471214523056E9, 0.0, 2022-10-29 14:38:41.452
0.0, 105.45395905058831, 100.24427841231227, 297.0939125800505, -1454.4078238182701, 0.0, 0.0, 1.008000047877431, 0.0, 0.0, 0.0, 0.0, 0.0, 1.6670471214529927E9, 0.0, 2022-10-29 14:38:41.452
1.0, 57.03160437429324, 34.195775244850665, 426.0980216516182, -1262.1133877965622, 0.0, 0.0, 1.008000047877431, 0.0, 0.0, 0.0, 0.0, 0.0, 1.6670471214665885E9, 0.0, 2022-10-29 14:38:41.466
1.0, -175.64253146899864, 261.21705230511725, 466.1392605272122, -1116.702337619383, 0.0, 0.0, 1.008000047877431, 0.0, 0.0, 0.0, 0.0, 0.0, 1.6670471214665885E9, 0.0, 2022-10-29 14:38:41.466
2.0, -331.8731122179888, 135.5451940940693, 640.6299028098583, -1032.5377590665594, 0.0, 0.0, 1.008000047877431, 0.0, 0.0, 0.0, 0.0, 0.0, 1.6670471214822476E9, 0.0, 2022-10-29 14:38:41.482
2.0, -345.8771676020697, 116.23422067286447, 808.4167744219303, -976.1568972845562, 0.0, 0.0, 1.008000047877431, 0.0, 0.0, 0.0, 0.0, 0.0, 1.6670471214822476E9, 0.0, 2022-10-29 14:38:41.482
3.0, -440.91363532608375, 7.980946505442262, 929.8513259831816, -769.404008034151, 0.0, 0.0, 1.008000047877431, 0.0, 0.0, 0.0, 0.0, 0.0, 1.6670471214829738E9, 0.0, 2022-10-29 14:38:41.482
3.0, -664.9486022717319, -215.00310855265707, 946.4508719365112, -653.803700403776, 0.0, 0.0, 1.008000047877431, 0.0, 0.0, 0.0, 0.0, 0.0, 1.6670471214829738E9, 0.0, 2022-10-29 14:38:41.482
4.0, -786.6262473301031, -326.5568444309756, 1128.2343191327527, -537.8125732280314, 0.0, 0.0, 1.008000047877431, 0.0, 0.0, 0.0, 0.0, 0.0, 1.6670471214970376E9, 0.0, 2022-10-29 14:38:41.497
4.0, -865.4876477457583, -386.9730582651682, 1277.5423450637609, -472.5045702517964, 0.0, 0.0, 1.008000047877431, 0.0, 0.0, 0.0, 0.0, 0.0, 1.6670471214970376E9, 0.0, 2022-10-29 14:38:41.497
5.0, -962.7194367437623, -508.81712887156755, 1402.608339481987, -294.0066251666285, 0.0, 0.0, 1.008000047877431, 0.0, 0.0, 0.0, 0.0, 0.0, 1.6670471215286224E9, 0.0, 2022-10-29 14:38:41.528
5.0, -1164.4758196533658, -721.68101464957, 1421.3059693104587, -140.44259308604524, 0.0, 0.0, 1.008000047877431, 0.0, 0.0, 0.0, 0.0, 0.0, 1.6670471215286224E9, 0.0, 2022-10-29 14:38:41.528
6.0, -1284.1900172349997, -829.4200525730848, 1610.8571887146682, 15.857175812125206, 0.0, 0.0, 1.008000047877431, 0.0, 0.0, 0.0, 0.0, 0.0, 1.6670471215293448E9, 0.0, 2022-10-29 14:38:41.529
6.0, -1386.8783202683553, -927.0931497658603, 1748.5266459835693, 61.46712572174147, 0.0, 0.0, 1.008000047877431, 0.0, 0.0, 0.0, 0.0, 0.0, 1.6670471215293448E9, 0.0, 2022-10-29 14:38:41.529
7.0, -1454.7892936137505, -1019.1937960246578, 1898.1450836108997, 299.2649245043285, 0.0, 0.0, 1.008000047877431, 0.0, 0.0, 0.0, 0.0, 0.0, 1.6670471215302486E9, 0.0, 2022-10-29 14:38:41.530
7.0, -1616.4165499988012, -1185.8661774499342, 1955.9171881764196, 173.13866844866425, 0.0, 0.0, 1.008000047877431, 0.0, 0.0, 0.0, 0.0, 0.0, 1.6670471215302486E9, 0.0, 2022-10-29 14:38:41.530
8.0, -1702.2996125812642, -1248.7301558051258, 2166.8307161275297, 250.75468217907473, 0.0, 0.0, 1.008000047877431, 0.0, 0.0, 0.0, 0.0, 0.0, 1.6670471215308988E9, 0.0, 2022-10-29 14:38:41.530
8.0, -1822.8384581031278, -1365.1289320760407, 2265.1040672631934, 379.5175677035004, 0.0, 0.0, 1.008000047877431, 0.0, 0.0, 0.0, 0.0, 0.0, 1.6670471215308988E9, 0.0, 2022-10-29 14:38:41.530
9.0, -1916.2293698466383, -1478.9434374775738, 2380.9325087908655, 533.4069710802287, 0.0, 0.0, 1.008000047877431, 0.0, 0.0, 0.0, 0.0, 0.0, 1.6670471215416422E9, 0.0, 2022-10-29 14:38:41.541
9.0, -2076.9440906425007, -1650.5898858439177, 2437.395648371894, 660.7243852717802, 0.0, 0.0, 1.008000047877431, 0.0, 0.0, 0.0, 0.0, 0.0, 1.6670471215416422E9, 0.0, 2022-10-29 14:38:41.541
10.0, -2194.6088230484165, -1734.6553570479155, 2646.3606884460896, 788.0474093132652, 0.0, 0.0, 0.9920000471174717, 0.0, 0.0, 0.0, 0.0, 0.0, 1.6670471215566483E9, 0.0, 2022-10-29 14:38:41.556
10.0, -2345.960704305209, -1882.6263687447645, 2726.375847998075, 829.0385827776045, 0.0, 0.0, 0.9920000471174717, 0.0, 0.0, 0.0, 0.0, 0.0, 1.6670471215566483E9, 0.0, 2022-10-29 14:38:41.556
11.0, -2400.0265680146404, -1968.189669881016, 2874.85361613892, 1034.3179514454678, 0.0, 0.0, 0.9920000471174717, 0.0, 0.0, 0.0, 0.0, 0.0, 1.6670471215723155E9, 0.0, 2022-10-29 14:38:41.572
11.0, -2543.2048979182728, -2106.1919782459736, 2944.5485217631795, 1133.862868566066, 0.0, 0.0, 0.9920000471174717, 0.0, 0.0, 0.0, 0.0, 0.0, 1.6670471215723155E9, 0.0, 2022-10-29 14:38:41.572
12.0, -2651.1832894389518, -2187.8564336784184, 3154.4148777266964, 1294.3326259148307, 0.0, 0.0, 0.9920000471174717, 0.0, 0.0, 0.0, 0.0, 0.0, 1.6670471215730693E9, 0.0, 2022-10-29 14:38:41.573
12.0, -2801.588976006955, -2337.4655215558596, 3240.253061509691, 1331.860652020201, 0.0, 0.0, 0.9920000471174717, 0.0, 0.0, 0.0, 0.0, 0.0, 1.6670471215730693E9, 0.0, 2022-10-29 14:38:41.573
13.0, -2849.188552692998, -2424.090954279527, 3393.2374090971425, 1557.5673542460427, 0.0, 0.0, 0.9920000471174717, 0.0, 0.0, 0.0, 0.0, 0.0, 1.667047121586627E9, 0.0, 2022-10-29 14:38:41.586
13.0, -2991.660041505005, -2566.091215697117, 3458.2948387763463, 1730.7209822945297, 0.0, 0.0, 0.9920000471174717, 0.0, 0.0, 0.0, 0.0, 0.0, 1.667047121586627E9, 0.0, 2022-10-29 14:38:41.586
14.0, -3103.3521536816843, -2625.297571895644, 3684.3437418481335, 1895.0951951970346, 0.0, 0.0, 0.9920000471174717, 0.0, 0.0, 0.0, 0.0, 0.0, 1.6670471216022935E9, 0.0, 2022-10-29 14:38:41.602
14.0, -3291.7477439995855, -2820.690515030641, 3739.2940918970853, 1839.3407666576095, 0.0, 0.0, 0.9920000471174717, 0.0, 0.0, 0.0, 0.0, 0.0, 1.6670471216022935E9, 0.0, 2022-10-29 14:38:41.602
15.0, -3319.795123717282, -2872.1721078706905, 3884.192775780335, 2053.1284077246673, 0.0, 0.0, 0.9920000471174717, 0.0, 0.0, 0.0, 0.0, 0.0, 1.6670471216030455E9, 0.0, 2022-10-29 14:38:41.603
15.0, -3442.643357461784, -3012.5791719071567, 3968.3797937328927, 2210.0097310659476, 0.0, 0.0, 0.9920000471174717, 0.0, 0.0, 0.0, 0.0, 0.0, 1.6670471216030455E9, 0.0, 2022-10-29 14:38:41.603
16.0, -3574.414992500562, -3102.886536137201, 4185.236022713594, 2396.965459900908, 0.0, 0.0, 0.9920000471174717, 0.0, 0.0, 0.0, 0.0, 0.0, 1.667047121616634E9, 0.0, 2022-10-29 14:38:41.616
16.0, -3729.405796414241, -3266.8942388440482, 4258.3548067472875, 2477.3340399987064, 0.0, 0.0, 0.9920000471174717, 0.0, 0.0, 0.0, 0.0, 0.0, 1.667047121616634E9, 0.0, 2022-10-29 14:38:41.616
17.0, -3719.0200942372903, -3298.6441195178777, 4461.868942636065, 2682.9387799627148, 0.0, 0.0, 0.9920000471174717, 0.0, 0.0, 0.0, 0.0, 0.0, 1.6670471216322641E9, 0.0, 2022-10-29 14:38:41.632
17.0, -3803.373537737876, -3353.1382017722353, 4569.841724306811, 2842.6212883708067, 0.0, 0.0, 0.9920000471174717, 0.0, 0.0, 0.0, 0.0, 0.0, 1.6670471216322641E9, 0.0, 2022-10-29 14:38:41.632
18.0, -3943.8965386729687, -3480.238701766357, 4783.414321126416, 2987.779895300977, 0.0, 0.0, 0.9920000471174717, 0.0, 0.0, 0.0, 0.0, 0.0, 1.667047121633048E9, 0.0, 2022-10-29 14:38:41.633
18.0, -4148.029628004413, -3689.2187014403753, 4800.647780122235, 2928.6296376017854, 0.0, 0.0, 0.9920000471174717, 0.0, 0.0, 0.0, 0.0, 0.0, 1.667047121633048E9, 0.0, 2022-10-29 14:38:41.633
19.0, -4169.741617197171, -3739.21181409806, 4949.634174657054, 3099.6328231757507, 0.0, 0.0, 0.9920000471174717, 0.0, 0.0, 0.0, 0.0, 0.0, 1.667047121646603E9, 0.0, 2022-10-29 14:38:41.646
19.0, -4301.071944041178, -3854.3483741339296, 5019.848926375154, 3227.5860203597695, 0.0, 0.0, 0.9920000471174717, 0.0, 0.0, 0.0, 0.0, 0.0, 1.667047121646603E9, 0.0, 2022-10-29 14:38:41.646
20.0, -4477.0753758559, -4022.325980643742, 5211.3822927558795, 3373.2794329836033, 0.0, 0.0, 0.9920000471174717, 0.0, 0.0, 0.0, 0.0, 0.0, 1.6670471216623757E9, 0.0, 2022-10-29 14:38:41.662
20.0, -4699.18242437439, -4255.746226528194, 5213.970303525217, 3380.0318223536015, 0.0, 0.0, 0.9920000471174717, 0.0, 0.0, 0.0, 0.0, 0.0, 1.6670471216623757E9, 0.0, 2022-10-29 14:38:41.662
21.0, -4718.927226190455, -4289.4109359793365, 5390.411303634755, 3592.2748847389594, 0.0, 0.0, 0.9920000471174717, 0.0, 0.0, 0.0, 0.0, 0.0, 1.6670471216629725E9, 0.0, 2022-10-29 14:38:41.662
21.0, -4866.024971247651, -4420.056861131452, 5437.31525892904, 3753.0195247344673, 0.0, 0.0, 0.9920000471174717, 0.0, 0.0, 0.0, 0.0, 0.0, 1.6670471216629725E9, 0.0, 2022-10-29 14:38:41.662
22.0, -5029.256644713692, -4560.063755872659, 5639.103430988267, 3979.7079506986775, 0.0, 0.0, 0.9920000471174717, 0.0, 0.0, 0.0, 0.0, 0.0, 1.6670471216766348E9, 0.0, 2022-10-29 14:38:41.676
22.0, -5240.7012384585105, -4793.255867859814, 5675.522576756775, 3985.8095974763855, 0.0, 0.0, 0.9920000471174717, 0.0, 0.0, 0.0, 0.0, 0.0, 1.6670471216766348E9, 0.0, 2022-10-29 14:38:41.676
23.0, -5251.690934478305, -4813.008149475791, 5837.572441836819, 4182.902325141244, 0.0, 0.0, 0.9920000471174717, 0.0, 0.0, 0.0, 0.0, 0.0, 1.6670471216923554E9, 0.0, 2022-10-29 14:38:41.692
23.0, -5408.845270516351, -4993.3386455392465, 5882.617666853126, 4293.326611232944, 0.0, 0.0, 0.9920000471174717, 0.0, 0.0, 0.0, 0.0, 0.0, 1.6670471216923554E9, 0.0, 2022-10-29 14:38:41.692
24.0, -5580.9180674776435, -5118.228864659555, 6066.903107119724, 4486.135283498559, 0.0, 0.0, 0.9920000471174717, 0.0, 0.0, 0.0, 0.0, 0.0, 1.667047121693005E9, 0.0, 2022-10-29 14:38:41.693
24.0, -5784.924000210594, -5309.702392640989, 6118.928855403326, 4409.54213240603, 0.0, 0.0, 0.9920000471174717, 0.0, 0.0, 0.0, 0.0, 0.0, 1.667047121693005E9, 0.0, 2022-10-29 14:38:41.693
25.0, -5751.881984102074, -5302.185193730053, 6294.31520372536, 4556.426703165751, 0.0, 0.0, 0.9920000471174717, 0.0, 0.0, 0.0, 0.0, 0.0, 1.6670471217065427E9, 0.0, 2022-10-29 14:38:41.706
25.0, -5859.931433721911, -5412.635659121443, 6391.913502919022, 4707.866472071502, 0.0, 0.0, 0.9920000471174717, 0.0, 0.0, 0.0, 0.0, 0.0, 1.6670471217065427E9, 0.0, 2022-10-29 14:38:41.706
26.0, -6066.287893577013, -5612.791364850011, 6574.927377200685, 4917.788926534355, 0.0, 0.0, 0.9920000471174717, 0.0, 0.0, 0.0, 0.0, 0.0, 1.6670471217544024E9, 0.0, 2022-10-29 14:38:41.754
26.0, -5840.861683847848, -5381.575789989438, 6568.784591523465, 4844.505586902611, 0.0, 0.0, 0.9920000471174717, 0.0, 0.0, 0.0, 0.0, 0.0, 1.6670471217544024E9, 0.0, 2022-10-29 14:38:41.754
27.0, -5753.819252279121, -5315.510457272176, 6801.922474961262, 5047.129626601934, 0.0, 0.0, 0.9920000471174717, 0.0, 0.0, 0.0, 0.0, 0.0, 1.6670471217550445E9, 0.0, 2022-10-29 14:38:41.755
27.0, -5824.925970136654, -5367.524985855911, 6896.296980393119, 5255.920761328191, 0.0, 0.0, 0.9920000471174717, 0.0, 0.0, 0.0, 0.0, 0.0, 1.6670471217550445E9, 0.0, 2022-10-29 14:38:41.755
28.0, -6054.664284514729, -5597.072565336246, 7086.199750393163, 5460.805570550729, 0.0, 0.0, 0.9920000471174717, 0.0, 0.0, 0.0, 0.0, 0.0, 1.6670471217557645E9, 0.0, 2022-10-29 14:38:41.755
28.0, -6270.118051012047, -5811.935427640565, 7110.830731501337, 5389.58291579457, 0.0, 0.0, 0.9920000471174717, 0.0, 0.0, 0.0, 0.0, 0.0, 1.6670471217557645E9, 0.0, 2022-10-29 14:38:41.755
29.0, -6185.787046911195, -5748.106555096805, 7352.461927738506, 5147.5085414126515, 0.0, 0.0, 0.9920000471174717, 0.0, 0.0, 0.0, 0.0, 0.0, 1.667047121756534E9, 0.0, 2022-10-29 14:38:41.756
29.0, -6275.716681245714, -5850.007609189488, 7418.626367804594, 5271.983631637879, 0.0, 0.0, 0.9920000471174717, 0.0, 0.0, 0.0, 0.0, 0.0, 1.667047121756534E9, 0.0, 2022-10-29 14:38:41.756
30.0, -6511.221921355464, -6046.213980564848, 7589.825898126233, 5422.782007701229, 0.0, 0.0, 1.008000047877431, 0.0, 0.0, 0.0, 0.0, 0.0, 1.6670471217672522E9, 0.0, 2022-10-29 14:38:41.767
30.0, -6280.339197590947, -5814.018551915884, 7591.636009704787, 5283.291219153907, 0.0, 0.0, 1.008000047877431, 0.0, 0.0, 0.0, 0.0, 0.0, 1.6670471217672522E9, 0.0, 2022-10-29 14:38:41.767
31.0, -6269.358851321042, -5838.516766575631, 7749.074578139465, 5443.695528253447, 0.0, 0.0, 1.008000047877431, 0.0, 0.0, 0.0, 0.0, 0.0, 1.6670471217680573E9, 0.0, 2022-10-29 14:38:41.768
31.0, -6346.8607981028035, -5911.837505206931, 7829.843327532522, 5583.186316800769, 0.0, 0.0, 1.008000047877431, 0.0, 0.0, 0.0, 0.0, 0.0, 1.6670471217680573E9, 0.0, 2022-10-29 14:38:41.768
32.0, -6564.949324118905, -6106.402060501743, 8011.372461531777, 5791.579152181745, 0.0, 0.0, 1.008000047877431, 0.0, 0.0, 0.0, 0.0, 0.0, 1.667047121782386E9, 0.0, 2022-10-29 14:38:41.782
32.0, -6323.845453775488, -5872.254404075909, 8032.798348377924, 5718.606224246323, 0.0, 0.0, 1.008000047877431, 0.0, 0.0, 0.0, 0.0, 0.0, 1.667047121782386E9, 0.0, 2022-10-29 14:38:41.782
33.0, -6292.879082142375, -5866.532357143704, 8214.834238821175, 5928.235096562654, 0.0, 0.0, 1.008000047877431, 0.0, 0.0, 0.0, 0.0, 0.0, 1.667047121783101E9, 0.0, 2022-10-29 14:38:41.783
33.0, -6346.423229807988, -5909.832918830682, 8335.575038940646, 6095.629278679378, 0.0, 0.0, 1.008000047877431, 0.0, 0.0, 0.0, 0.0, 0.0, 1.667047121783101E9, 0.0, 2022-10-29 14:38:41.783
34.0, -6538.1903399359435, -6073.300205993932, 8542.479394139256, 6323.521952429321, 0.0, 0.0, 1.008000047877431, 0.0, 0.0, 0.0, 0.0, 0.0, 1.6670471217965093E9, 0.0, 2022-10-29 14:38:41.796
34.0, -6301.839882436208, -5849.863623041194, 8537.858747744001, 6239.87535002036, 0.0, 0.0, 1.008000047877431, 0.0, 0.0, 0.0, 0.0, 0.0, 1.6670471217965093E9, 0.0, 2022-10-29 14:38:41.796
35.0, -6245.558128003031, -5819.787347597536, 8733.455515426584, 6462.18248318648, 0.0, 0.0, 1.008000047877431, 0.0, 0.0, 0.0, 0.0, 0.0, 1.6670471218125296E9, 0.0, 2022-10-29 14:38:41.812
35.0, -6341.6997361639515, -5904.380144695286, 8802.099509163294, 6589.95242527267, 0.0, 0.0, 1.008000047877431, 0.0, 0.0, 0.0, 0.0, 0.0, 1.6670471218125296E9, 0.0, 2022-10-29 14:38:41.812
36.0, -6583.944275993854, -6123.844953895081, 8987.342363818549, 6804.886345676146, 0.0, 0.0, 1.008000047877431, 0.0, 0.0, 0.0, 0.0, 0.0, 1.6670471218130033E9, 0.0, 2022-10-29 14:38:41.813
36.0, -6383.18644637242, -5926.808324729558, 8956.003872139845, 6690.157434735447, 0.0, 0.0, 1.008000047877431, 0.0, 0.0, 0.0, 0.0, 0.0, 1.6670471218130033E9, 0.0, 2022-10-29 14:38:41.813
37.0, -6323.80057497602, -5898.119552169461, 9140.77736935066, 6842.453640731052, 0.0, 0.0, 1.008000047877431, 0.0, 0.0, 0.0, 0.0, 0.0, 1.6670471218266368E9, 0.0, 2022-10-29 14:38:41.826
37.0, -6378.657427526079, -5953.728124610614, 9282.876738117076, 6952.253363530152, 0.0, 0.0, 1.008000047877431, 0.0, 0.0, 0.0, 0.0, 0.0, 1.6670471218266368E9, 0.0, 2022-10-29 14:38:41.826
38.0, -6575.017134799622, -6147.036073520314, 9473.684563906398, 6708.7148183155805, 0.0, 0.0, 1.008000047877431, 0.0, 0.0, 0.0, 0.0, 0.0, 1.6670471218423083E9, 0.0, 2022-10-29 14:38:41.842
38.0, -6332.06949377805, -6390.221198189072, 9490.865664302837, 6660.032540592365, 0.0, 0.0, 1.008000047877431, 0.0, 0.0, 0.0, 0.0, 0.0, 1.6670471218423083E9, 0.0, 2022-10-29 14:38:41.842
39.0, -6216.570163446479, -6289.419674683362, 9733.68240882596, 6848.703013557009, 0.0, 0.0, 1.008000047877431, 0.0, 0.0, 0.0, 0.0, 0.0, 1.6670471218431137E9, 0.0, 2022-10-29 14:38:41.843
39.0, -6267.552479642443, -6326.986969738267, 9863.398968839087, 7036.868600027636, 0.0, 0.0, 1.008000047877431, 0.0, 0.0, 0.0, 0.0, 0.0, 1.6670471218431137E9, 0.0, 2022-10-29 14:38:41.843
40.0, -6450.145615179092, -6500.761421179399, 10072.8352363077, 6838.018119383603, 0.0, 0.0, 1.008000047877431, 0.0, 0.0, 0.0, 0.0, 0.0, 1.667047121856588E9, 0.0, 2022-10-29 14:38:41.856
40.0, -6252.828493516892, -6299.629601562396, 10026.080877011642, 6730.866245753132, 0.0, 0.0, 1.008000047877431, 0.0, 0.0, 0.0, 0.0, 0.0, 1.667047121856588E9, 0.0, 2022-10-29 14:38:41.856
41.0, -6212.269278497435, -6283.562991352752, 10216.236090258695, 6957.28726887051, 0.0, 0.0, 1.008000047877431, 0.0, 0.0, 0.0, 0.0, 0.0, 1.6670471218722892E9, 0.0, 2022-10-29 14:38:41.872
41.0, -6256.332779775374, -6347.335765397176, 10349.049287435133, 7114.912832302973, 0.0, 0.0, 1.008000047877431, 0.0, 0.0, 0.0, 0.0, 0.0, 1.6670471218722892E9, 0.0, 2022-10-29 14:38:41.872
42.0, -6492.63835847564, -6542.999851278961, 10513.703992834315, 6911.641789911315, 0.0, 0.0, 1.008000047877431, 0.0, 0.0, 0.0, 0.0, 0.0, 1.6670471218730528E9, 0.0, 2022-10-29 14:38:41.873
42.0, -6298.264538078569, -6351.3598977494985, 10489.033742776606, 6819.528054002672, 0.0, 0.0, 1.008000047877431, 0.0, 0.0, 0.0, 0.0, 0.0, 1.6670471218730528E9, 0.0, 2022-10-29 14:38:41.873
43.0, -6233.89711994119, -6291.446700459346, 10686.100291141775, 6947.769223483279, 0.0, 0.0, 1.008000047877431, 0.0, 0.0, 0.0, 0.0, 0.0, 1.6670471218866885E9, 0.0, 2022-10-29 14:38:41.886
43.0, -6310.093841638416, -6348.038866588846, 10785.21324981749, 6993.811131837778, 0.0, 0.0, 1.008000047877431, 0.0, 0.0, 0.0, 0.0, 0.0, 1.6670471218866885E9, 0.0, 2022-10-29 14:38:41.886
44.0, -6539.028077526018, -6583.143937403336, 10971.607993659098, 7087.632132076193, 0.0, 0.0, 1.008000047877431, 0.0, 0.0, 0.0, 0.0, 0.0, 1.6670471219023387E9, 0.0, 2022-10-29 14:38:41.902
44.0, -6321.2088243067265, -6367.710740355775, 10941.204476969317, 6929.13891185401, 0.0, 0.0, 1.008000047877431, 0.0, 0.0, 0.0, 0.0, 0.0, 1.6670471219023387E9, 0.0, 2022-10-29 14:38:41.902
45.0, -6253.213703212328, -6315.079128279351, 11173.351286918856, 7116.7958719306625, 0.0, 0.0, 1.008000047877431, 0.0, 0.0, 0.0, 0.0, 0.0, 1.6670471219031794E9, 0.0, 2022-10-29 14:38:41.903
45.0, -6289.400975183584, -6365.724853479303, 11283.190278667491, 6894.722482511774, 0.0, 0.0, 1.008000047877431, 0.0, 0.0, 0.0, 0.0, 0.0, 1.6670471219031794E9, 0.0, 2022-10-29 14:38:41.903
46.0, -6078.461267932784, -6137.375911934767, 11430.787300368771, 6674.322698323056, 0.0, 0.0, 1.008000047877431, 0.0, 0.0, 0.0, 0.0, 0.0, 1.6670471219166353E9, 0.0, 2022-10-29 14:38:41.916
46.0, -5882.965477549005, -5908.8568049422465, 11416.884222283494, 6655.7690546428785, 0.0, 0.0, 1.008000047877431, 0.0, 0.0, 0.0, 0.0, 0.0, 1.6670471219166353E9, 0.0, 2022-10-29 14:38:41.916
47.0, -5785.963692398276, -5836.291526101995, 11187.278674353845, 6489.745545859914, 0.0, 0.0, 1.008000047877431, 0.0, 0.0, 0.0, 0.0, 0.0, 1.6670471219320843E9, 0.0, 2022-10-29 14:38:41.932
47.0, -5800.463284526486, -5879.932418684941, 11321.628970412072, 6268.427616232075, 0.0, 0.0, 1.008000047877431, 0.0, 0.0, 0.0, 0.0, 0.0, 1.6670471219320843E9, 0.0, 2022-10-29 14:38:41.932
48.0, -6027.198459240142, -6066.5609062737785, 11525.500266746618, 6091.365792729892, 0.0, 0.0, 1.008000047877431, 0.0, 0.0, 0.0, 0.0, 0.0, 1.6670471219474232E9, 0.0, 2022-10-29 14:38:41.947
48.0, -6207.830017250031, -6261.355465415865, 11607.36667677667, 5996.929578948766, 0.0, 0.0, 1.008000047877431, 0.0, 0.0, 0.0, 0.0, 0.0, 1.6670471219474232E9, 0.0, 2022-10-29 14:38:41.947
49.0, -6098.228509148583, -6156.196958461776, 11849.375602909364, 6156.372733759694, 0.0, 0.0, 1.008000047877431, 0.0, 0.0, 0.0, 0.0, 0.0, 1.6670471219480808E9, 0.0, 2022-10-29 14:38:41.948
49.0, -6125.335304027423, -6194.1382435122505, 11960.646976341028, 6250.229263047688, 0.0, 0.0, 1.008000047877431, 0.0, 0.0, 0.0, 0.0, 0.0, 1.6670471219480808E9, 0.0, 2022-10-29 14:38:41.948
50.0, -5890.965123554226, -6417.1746571697295, 12139.86111226771, 6039.657935942523, 0.0, 0.0, 1.008000047877431, 0.0, 0.0, 0.0, 0.0, 0.0, 1.667047121962309E9, 0.0, 2022-10-29 14:38:41.962
50.0, -5697.099929551128, -6245.270155706443, 12063.688699920196, 5946.852318542078, 0.0, 0.0, 1.008000047877431, 0.0, 0.0, 0.0, 0.0, 0.0, 1.667047121962309E9, 0.0, 2022-10-29 14:38:41.962
51.0, -5641.038829215337, -6189.732641364448, 12294.8257368817, 5701.823423195165, 0.0, 0.0, 1.008000047877431, 0.0, 0.0, 0.0, 0.0, 0.0, 1.6670471219630945E9, 0.0, 2022-10-29 14:38:41.963
51.0, -5752.203615498263, -6314.880913581699, 12351.999457454309, 5855.282738076989, 0.0, 0.0, 1.008000047877431, 0.0, 0.0, 0.0, 0.0, 0.0, 1.6670471219630945E9, 0.0, 2022-10-29 14:38:41.963
52.0, -5556.72091476433, -6093.884615350049, 12501.623504931573, 5638.5069169453345, 0.0, 0.0, 1.008000047877431, 0.0, 0.0, 0.0, 0.0, 0.0, 1.667047121976604E9, 0.0, 2022-10-29 14:38:41.976
52.0, -5354.418506461196, -5885.26925592171, 12468.58335877303, 5491.244616290089, 0.0, 0.0, 1.008000047877431, 0.0, 0.0, 0.0, 0.0, 0.0, 1.667047121976604E9, 0.0, 2022-10-29 14:38:41.976
53.0, -5252.93632116355, -5801.398259515408, 12689.45811025612, 5672.943915737327, 0.0, 0.0, 1.008000047877431, 0.0, 0.0, 0.0, 0.0, 0.0, 1.6670471219923306E9, 0.0, 2022-10-29 14:38:41.992
53.0, -5350.981538401917, -5900.685123539064, 12755.607590722386, 5806.252649657894, 0.0, 0.0, 1.008000047877431, 0.0, 0.0, 0.0, 0.0, 0.0, 1.6670471219923306E9, 0.0, 2022-10-29 14:38:41.992
54.0, -5161.6322735953145, -5691.349833369255, 12907.135247277096, 5579.655851242598, 0.0, 0.0, 1.008000047877431, 0.0, 0.0, 0.0, 0.0, 0.0, 1.6670471219931512E9, 0.0, 2022-10-29 14:38:41.993
54.0, -5403.878683375195, -5933.012818756048, 12913.350961003453, 5479.063762134407, 0.0, 0.0, 1.008000047877431, 0.0, 0.0, 0.0, 0.0, 0.0, 1.6670471219931512E9, 0.0, 2022-10-29 14:38:41.993
55.0, -5320.45273506362, -5868.765077417251, 13114.598717519082, 5672.846678338479, 0.0, 0.0, 1.008000047877431, 0.0, 0.0, 0.0, 0.0, 0.0, 1.6670471220066323E9, 0.0, 2022-10-29 14:38:42.006
55.0, -5358.809149009176, -5922.784192377236, 13242.565004352946, 5807.146485747304, 0.0, 0.0, 1.008000047877431, 0.0, 0.0, 0.0, 0.0, 0.0, 1.6670471220066323E9, 0.0, 2022-10-29 14:38:42.006
56.0, -5206.155782567803, -5747.351095305756, 13379.282657083124, 5582.0755665139295, 0.0, 0.0, 1.008000047877431, 0.0, 0.0, 0.0, 0.0, 0.0, 1.6670471220222428E9, 0.0, 2022-10-29 14:38:42.022
56.0, -5405.93936825078, -5932.691187359858, 13390.352760951966, 5467.728125368711, 0.0, 0.0, 1.008000047877431, 0.0, 0.0, 0.0, 0.0, 0.0, 1.6670471220222428E9, 0.0, 2022-10-29 14:38:42.022
57.0, -5328.141969372518, -5872.164646476973, 13597.80127159413, 5229.049580146559, 0.0, 0.0, 1.008000047877431, 0.0, 0.0, 0.0, 0.0, 0.0, 1.6670471220229657E9, 0.0, 2022-10-29 14:38:42.022
57.0, -5383.600945815444, -5934.542437837925, 13717.382702727336, 5385.654150891118, 0.0, 0.0, 1.008000047877431, 0.0, 0.0, 0.0, 0.0, 0.0, 1.6670471220229657E9, 0.0, 2022-10-29 14:38:42.022
58.0, -5271.682569691446, -5820.828909735195, 13818.904156974517, 5617.986085888464, 0.0, 0.0, 1.008000047877431, 0.0, 0.0, 0.0, 0.0, 0.0, 1.667047122036612E9, 0.0, 2022-10-29 14:38:42.036
58.0, -5506.176166863181, -6043.328647749033, 13798.190721069928, 5482.381053395104, 0.0, 0.0, 1.008000047877431, 0.0, 0.0, 0.0, 0.0, 0.0, 1.667047122036612E9, 0.0, 2022-10-29 14:38:42.036
59.0, -5447.130626362748, -6002.511379632633, 14010.86387195019, 5308.342939007096, 0.0, 0.0, 1.008000047877431, 0.0, 0.0, 0.0, 0.0, 0.0, 1.6670471220522983E9, 0.0, 2022-10-29 14:38:42.052
59.0, -5498.475712854415, -6065.977481880691, 14126.731582427397, 5416.272711828351, 0.0, 0.0, 1.008000047877431, 0.0, 0.0, 0.0, 0.0, 0.0, 1.6670471220522983E9, 0.0, 2022-10-29 14:38:42.052
60.0, -5325.368833555374, -5859.645331375301, 14262.697515266482, 5528.048971754033, 0.0, 0.0, 1.008000047877431, 0.0, 0.0, 0.0, 0.0, 0.0, 1.6670471220530212E9, 0.0, 2022-10-29 14:38:42.053
60.0, -5509.355081825517, -6036.862360725645, 14286.21400618786, 5341.106332568917, 0.0, 0.0, 1.008000047877431, 0.0, 0.0, 0.0, 0.0, 0.0, 1.6670471220530212E9, 0.0, 2022-10-29 14:38:42.053
61.0, -5390.699275931343, -5929.067224302795, 14054.259801086038, 5504.136051437352, 0.0, -0.01600000075995922, 1.008000047877431, 0.0, 0.0, 0.0, 0.0, 0.0, 1.6670471220829675E9, 0.0, 2022-10-29 14:38:42.082
61.0, -5460.261415107176, -6003.726847118232, 14140.04001641972, 5665.370618327055, 0.0, -0.01600000075995922, 1.008000047877431, 0.0, 0.0, 0.0, 0.0, 0.0, 1.6670471220829675E9, 0.0, 2022-10-29 14:38:42.082
62.0, -5315.805909368675, -5840.571841601282, 14273.03272879403, 5480.668179215398, 0.0, -0.01600000075995922, 1.008000047877431, 0.0, 0.0, 0.0, 0.0, 0.0, 1.6670471220838592E9, 0.0, 2022-10-29 14:38:42.083
62.0, -5523.806055254303, -6044.891925930511, 14312.051105031744, 5366.346917369869, 0.0, -0.01600000075995922, 1.008000047877431, 0.0, 0.0, 0.0, 0.0, 0.0, 1.6670471220838592E9, 0.0, 2022-10-29 14:38:42.083
63.0, -5388.97518205177, -5959.786762538832, 14550.49216660671, 5576.839706575964, 0.0, -0.01600000075995922, 1.008000047877431, 0.0, 0.0, 0.0, 0.0, 0.0, 1.6670471220845065E9, 0.0, 2022-10-29 14:38:42.084
63.0, -5476.242007617839, -6045.415511924308, 14636.94182403246, 5697.010171952192, 0.0, -0.01600000075995922, 1.008000047877431, 0.0, 0.0, 0.0, 0.0, 0.0, 1.6670471220845065E9, 0.0, 2022-10-29 14:38:42.084
64.0, -5325.4511113543995, -5850.418998184614, 14760.708203216083, 5478.6561130392365, 0.0, -0.01600000075995922, 1.008000047877431, 0.0, 0.0, 0.0, 0.0, 0.0, 1.6670471220965838E9, 0.0, 2022-10-29 14:38:42.096
64.0, -5188.63061137544, -5712.895397013985, 14693.664886660408, 5357.84238487063, 0.0, -0.01600000075995922, 1.008000047877431, 0.0, 0.0, 0.0, 0.0, 0.0, 1.6670471220965838E9, 0.0, 2022-10-29 14:38:42.096
65.0, -5305.680130238645, -5833.108871239703, 14605.958622849546, 5472.2160053155385, 0.0, -0.01600000075995922, 1.008000047877431, 0.0, 0.0, 0.0, 0.0, 0.0, 1.6670471221122897E9, 0.0, 2022-10-29 14:38:42.112
65.0, -5413.381769162603, -5965.146039175335, 14678.71276663756, 5621.135081651155, 0.0, -0.01600000075995922, 1.008000047877431, 0.0, 0.0, 0.0, 0.0, 0.0, 1.6670471221122897E9, 0.0, 2022-10-29 14:38:42.112
66.0, -5288.691634689923, -5803.322438042611, 14784.430388635024, 5441.406709480565, 0.0, -0.01600000075995922, 1.008000047877431, 0.0, 0.0, 0.0, 0.0, 0.0, 1.6670471221130505E9, 0.0, 2022-10-29 14:38:42.113
66.0, -5479.978167673573, -5999.339944470208, 14825.617906847037, 5308.857175251003, 0.0, -0.01600000075995922, 1.008000047877431, 0.0, 0.0, 0.0, 0.0, 0.0, 1.6670471221130505E9, 0.0, 2022-10-29 14:38:42.113
67.0, -5353.0571828773245, -5906.9531958648, 15066.134612897411, 5482.111780598294, 0.0, -0.01600000075995922, 1.008000047877431, 0.0, 0.0, 0.0, 0.0, 0.0, 1.6670471221266038E9, 0.0, 2022-10-29 14:38:42.126
67.0, -5423.064370147884, -5989.37685098825, 15156.881415372249, 5613.142915445846, 0.0, -0.01600000075995922, 1.008000047877431, 0.0, 0.0, 0.0, 0.0, 0.0, 1.6670471221266038E9, 0.0, 2022-10-29 14:38:42.126
68.0, -5384.889341350179, -5903.203946159221, 15202.910234076902, 5411.031242040452, 0.0, -0.01600000075995922, 1.008000047877431, 0.0, 0.0, 0.0, 0.0, 0.0, 1.6670471221423635E9, 0.0, 2022-10-29 14:38:42.142
68.0, -5141.810803830158, -5669.658413626254, 15177.735097525176, 5236.134820612613, 0.0, -0.01600000075995922, 1.008000047877431, 0.0, 0.0, 0.0, 0.0, 0.0, 1.6670471221423635E9, 0.0, 2022-10-29 14:38:42.142
69.0, -5163.122623727657, -5700.290064213332, 15303.190041538794, 5335.384285636712, 0.0, -0.01600000075995922, 1.008000047877431, 0.0, 0.0, 0.0, 0.0, 0.0, 1.6670471221431336E9, 0.0, 2022-10-29 14:38:42.143
69.0, -4959.700115387794, -5507.286917150021, 15154.678614298347, 5191.878714486957, 0.0, -0.01600000075995922, 1.008000047877431, 0.0, 0.0, 0.0, 0.0, 0.0, 1.6670471221431336E9, 0.0, 2022-10-29 14:38:42.143
70.0, -5179.0714270886965, -5687.262122717686, 14923.687433435116, 5170.318191242404, 0.0, -0.01600000075995922, 1.008000047877431, 0.0, 0.0, 0.0, 0.0, 0.0, 1.6670471221566093E9, 0.0, 2022-10-29 14:38:42.156
70.0, -5285.050842083059, -5789.684892854188, 15022.64518626267, 5076.24474775698, 0.0, -0.01600000075995922, 1.008000047877431, 0.0, 0.0, 0.0, 0.0, 0.0, 1.6670471221566093E9, 0.0, 2022-10-29 14:38:42.156
71.0, -5157.666109692305, -5679.615897258278, 15262.196998124477, 5265.861415410414, 0.0, 0.0, 1.008000047877431, 0.0, 0.0, 0.0, 0.0, 0.0, 1.6670471221722643E9, 0.0, 2022-10-29 14:38:42.172
71.0, -5266.13442810718, -5801.719890911598, 15302.309295099229, 5320.852904358879, 0.0, 0.0, 1.008000047877431, 0.0, 0.0, 0.0, 0.0, 0.0, 1.6670471221722643E9, 0.0, 2022-10-29 14:38:42.172
72.0, -5210.030318921898, -5758.544615873136, 15385.0265323692, 5161.465848047286, 0.0, 0.0, 1.008000047877431, 0.0, 0.0, 0.0, 0.0, 0.0, 1.6670471221729765E9, 0.0, 2022-10-29 14:38:42.172
72.0, -5410.434727997519, -5955.429779090453, 15393.239352671895, 5001.398129943758, 0.0, 0.0, 1.008000047877431, 0.0, 0.0, 0.0, 0.0, 0.0, 1.6670471221729765E9, 0.0, 2022-10-29 14:38:42.172
73.0, -5295.750695856288, -5832.959275241476, 15576.094281205442, 5187.5142512386665, 0.0, 0.0, 1.008000047877431, 0.0, 0.0, 0.0, 0.0, 0.0, 1.66704712218651E9, 0.0, 2022-10-29 14:38:42.186
73.0, -5325.591357602738, -5873.09588156594, 15676.448886666447, 5294.78580166772, 0.0, 0.0, 1.008000047877431, 0.0, 0.0, 0.0, 0.0, 0.0, 1.66704712218651E9, 0.0, 2022-10-29 14:38:42.186
74.0, -5296.489326097537, -5816.715019783936, 15730.630687274504, 5070.616198323667, 0.0, 0.0, 1.008000047877431, 0.0, 0.0, 0.0, 0.0, 0.0, 1.6670471222023287E9, 0.0, 2022-10-29 14:38:42.202
74.0, -5499.646301540546, -6017.770171451848, 15728.975781544112, 4920.429295903072, 0.0, 0.0, 1.008000047877431, 0.0, 0.0, 0.0, 0.0, 0.0, 1.6670471222023287E9, 0.0, 2022-10-29 14:38:42.202
75.0, -5315.624524220824, -5860.380221716594, 15535.086278191302, 5103.486179034226, 0.0, 0.0, 1.008000047877431, 0.0, 0.0, 0.0, 0.0, 0.0, 1.6670471222030804E9, 0.0, 2022-10-29 14:38:42.203
75.0, -5393.780953494832, -5944.815943016205, 15611.206331939436, 5176.952773763798, 0.0, 0.0, 1.008000047877431, 0.0, 0.0, 0.0, 0.0, 0.0, 1.6670471222030804E9, 0.0, 2022-10-29 14:38:42.203
76.0, -5287.558445003349, -5823.345862405375, 15750.003369044978, 5023.800130678341, 0.0, 0.0, 1.008000047877431, 0.0, 0.0, 0.0, 0.0, 0.0, 1.6670471222166233E9, 0.0, 2022-10-29 14:38:42.216
76.0, -5091.079060931224, -5610.870926222764, 15712.22102974262, 4841.465048238635, 0.0, 0.0, 1.008000047877431, 0.0, 0.0, 0.0, 0.0, 0.0, 1.6670471222166233E9, 0.0, 2022-10-29 14:38:42.216
77.0, -4951.7416082820855, -5493.8045778097585, 15913.431387258694, 4986.158037624322, 0.0, 0.0, 1.008000047877431, 0.0, 0.0, 0.0, 0.0, 0.0, 1.667047122232338E9, 0.0, 2022-10-29 14:38:42.232
77.0, -5041.596444617491, -5585.877174818888, 15999.985761883203, 5102.513805045746, 0.0, 0.0, 1.008000047877431, 0.0, 0.0, 0.0, 0.0, 0.0, 1.667047122232338E9, 0.0, 2022-10-29 14:38:42.232
78.0, -4890.611073556356, -5416.207263579126, 16179.069001311436, 5056.8010078873485, 0.0, 0.0, 1.008000047877431, 0.0, 0.0, 0.0, 0.0, 0.0, 1.667047122233091E9, 0.0, 2022-10-29 14:38:42.233
78.0, -5126.963401006069, -5648.225046980195, 16165.820405718405, 4917.433636038564, 0.0, 0.0, 1.008000047877431, 0.0, 0.0, 0.0, 0.0, 0.0, 1.667047122233091E9, 0.0, 2022-10-29 14:38:42.233
79.0, -4942.683570589405, -5477.782846399583, 15961.103891993873, 5136.685270940885, 0.0, 0.0, 1.008000047877431, 0.0, 0.0, 0.0, 0.0, 0.0, 1.6670471222466063E9, 0.0, 2022-10-29 14:38:42.246
79.0, -4930.381169685163, -5472.354381613899, 16087.480721346568, 5254.978306539357, 0.0, 0.0, 1.008000047877431, 0.0, 0.0, 0.0, 0.0, 0.0, 1.6670471222466063E9, 0.0, 2022-10-29 14:38:42.246
80.0, -4800.724448071327, -5327.057398385368, 16231.629555288702, 5167.66660217382, 0.0, 0.0, 0.9920000471174717, 0.0, 0.0, 0.0, 0.0, 0.0, 1.667047122262304E9, 0.0, 2022-10-29 14:38:42.262
80.0, -4992.744001446292, -5514.308579316828, 16286.594864937477, 5045.080161426216, 0.0, 0.0, 0.9920000471174717, 0.0, 0.0, 0.0, 0.0, 0.0, 1.667047122262304E9, 0.0, 2022-10-29 14:38:42.262
81.0, -4808.804501925595, -5350.299006660003, 16067.416158084292, 5219.318360461853, 0.0, 0.0, 0.9920000471174717, 0.0, 0.0, 0.0, 0.0, 0.0, 1.6670471222631078E9, 0.0, 2022-10-29 14:38:42.263
81.0, -4749.985225372482, -5305.392157942057, 16238.888701102696, 5411.7923116814345, 0.0, 0.0, 0.9920000471174717, 0.0, 0.0, 0.0, 0.0, 0.0, 1.6670471222631078E9, 0.0, 2022-10-29 14:38:42.263
82.0, -4690.320731429383, -5201.9745744173415, 16381.051648168359, 5330.038098650053, 0.0, 0.0, 0.9920000471174717, 0.0, 0.0, 0.0, 0.0, 0.0, 1.6670471222766004E9, 0.0, 2022-10-29 14:38:42.276
82.0, -4494.791281946003, -5000.33786830632, 16291.322098481469, 5118.561715755612, 0.0, 0.0, 0.9920000471174717, 0.0, 0.0, 0.0, 0.0, 0.0, 1.6670471222766004E9, 0.0, 2022-10-29 14:38:42.276
83.0, -4330.366580394097, -4885.504240166862, 16075.165230792481, 5268.120314983651, 0.0, 0.0, 0.9920000471174717, 0.0, 0.0, 0.0, 0.0, 0.0, 1.6670471222923336E9, 0.0, 2022-10-29 14:38:42.292
83.0, -4300.0603011031635, -4840.619830848649, 16250.385153566487, 5316.293966312893, 0.0, 0.0, 0.9920000471174717, 0.0, 0.0, 0.0, 0.0, 0.0, 1.6670471222923336E9, 0.0, 2022-10-29 14:38:42.292
84.0, -4249.969951046631, -4774.350673583802, 16354.22160588624, 5153.4886414418, 0.0, 0.0, 0.9920000471174717, 0.0, 0.0, 0.0, 0.0, 0.0, 1.6670471222930627E9, 0.0, 2022-10-29 14:38:42.293
84.0, -4091.211197927594, -4626.647064733785, 16257.61064028088, 5380.577236701269, 0.0, 0.0, 0.9920000471174717, 0.0, 0.0, 0.0, 0.0, 0.0, 1.6670471222930627E9, 0.0, 2022-10-29 14:38:42.293
85.0, -3885.1389704691246, -4456.735929946881, 16086.1867159619, 5542.350349184591, 0.0, 0.0, 0.9920000471174717, 0.0, 0.0, 0.0, 0.0, 0.0, 1.6670471223068058E9, 0.0, 2022-10-29 14:38:42.306
85.0, -3816.0349690378644, -4353.950389514677, 16258.467077370733, 5674.765247015748, 0.0, 0.0, 0.9920000471174717, 0.0, 0.0, 0.0, 0.0, 0.0, 1.6670471223068058E9, 0.0, 2022-10-29 14:38:42.306
86.0, -3724.2671738751233, -4227.872752158437, 16415.997273354325, 5589.47682852624, 0.0, 0.0, 0.9920000471174717, 0.0, 0.0, 0.0, 0.0, 0.0, 1.6670471223223777E9, 0.0, 2022-10-29 14:38:42.322
86.0, -3570.89387669228, -4066.477369570639, 16299.669555182569, 5824.21725909505, 0.0, 0.0, 0.9920000471174717, 0.0, 0.0, 0.0, 0.0, 0.0, 1.6670471223223777E9, 0.0, 2022-10-29 14:38:42.322
87.0, -3800.9220333169214, -3835.852698903065, 16153.336619666312, 6027.4733418868855, 0.0, 0.0, 0.9920000471174717, 0.0, 0.0, 0.0, 0.0, 0.0, 1.667047122323105E9, 0.0, 2022-10-29 14:38:42.323
87.0, -3751.1383550567552, -3797.7225489048287, 16339.450871011242, 6199.415242349729, 0.0, 0.0, 0.9920000471174717, 0.0, 0.0, 0.0, 0.0, 0.0, 1.667047122323105E9, 0.0, 2022-10-29 14:38:42.323
88.0, -3707.929420918692, -3721.4678587582894, 16432.838042854797, 6113.924869262613, 0.0, 0.0, 0.9920000471174717, 0.0, 0.0, 0.0, 0.0, 0.0, 1.6670471223368204E9, 0.0, 2022-10-29 14:38:42.336
88.0, -3569.0444961641915, -3599.0422337087803, 16311.19966674596, 6311.045646177139, 0.0, 0.0, 0.9920000471174717, 0.0, 0.0, 0.0, 0.0, 0.0, 1.6670471223368204E9, 0.0, 2022-10-29 14:38:42.336
89.0, -3333.2812029574998, -3388.8261970994063, 16120.2011060589, 6510.9694781084545, 0.0, 0.0, 0.9920000471174717, 0.0, 0.0, 0.0, 0.0, 0.0, 1.6670471223523736E9, 0.0, 2022-10-29 14:38:42.352
89.0, -3293.2324842819944, -3322.594438834116, 16295.709001129493, 6686.669978026766, 0.0, 0.0, 0.9920000471174717, 0.0, 0.0, 0.0, 0.0, 0.0, 1.6670471223523736E9, 0.0, 2022-10-29 14:38:42.352
90.0, -3256.2991022695787, -3267.47392333718, 16388.602506178897, 6613.9663228881545, 0.0, 0.0, 0.9920000471174717, 0.0, 0.0, 0.0, 0.0, 0.0, 1.667047122353093E9, 0.0, 2022-10-29 14:38:42.353
90.0, -3109.253715811763, -3144.36389659578, 16268.29179455433, 6787.1928789857775, 0.0, 0.0, 0.9920000471174717, 0.0, 0.0, 0.0, 0.0, 0.0, 1.667047122353093E9, 0.0, 2022-10-29 14:38:42.353
91.0, -3350.8306834995747, -2908.2714921929874, 16092.716581284534, 6994.252440032549, 0.0, 0.0, 0.9920000471174717, 0.0, 0.0, 0.0, 0.0, 0.0, 1.667047122366635E9, 0.0, 2022-10-29 14:38:42.366
91.0, -3256.213084570598, -2802.6062287949026, 16295.462167732418, 7150.550338980742, 0.0, 0.0, 0.9920000471174717, 0.0, 0.0, 0.0, 0.0, 0.0, 1.667047122366635E9, 0.0, 2022-10-29 14:38:42.366
92.0, -3289.812345772516, -2824.237810138613, 16360.239104914945, 7069.738580738194, 0.0, 0.0, 0.9920000471174717, 0.0, 0.0, 0.0, 0.0, 0.0, 1.6670471223823063E9, 0.0, 2022-10-29 14:38:42.382
92.0, -3157.748998537194, -2684.1149784987792, 16213.502260203473, 7204.1150560961105, 0.0, 0.0, 0.9920000471174717, 0.0, 0.0, 0.0, 0.0, 0.0, 1.6670471223823063E9, 0.0, 2022-10-29 14:38:42.382
93.0, -2916.0243048011325, -2484.078949568793, 16036.928493645508, 7405.845259706024, 0.0, 0.0, 0.9920000471174717, 0.0, 0.0, 0.0, 0.0, 0.0, 1.6670471223830633E9, 0.0, 2022-10-29 14:38:42.383
93.0, -2810.5048975013196, -2359.811423791107, 16241.140120876022, 7594.885982766282, 0.0, 0.0, 0.9920000471174717, 0.0, 0.0, 0.0, 0.0, 0.0, 1.6670471223830633E9, 0.0, 2022-10-29 14:38:42.383
94.0, -2842.3202264243737, -2380.5379493455403, 16328.872563986573, 7507.70891479915, 0.0, 0.0, 0.9920000471174717, 0.0, 0.0, 0.0, 0.0, 0.0, 1.667047122396681E9, 0.0, 2022-10-29 14:38:42.396
94.0, -2714.3333701407537, -2235.994555958081, 16166.487977860495, 7641.232692967169, 0.0, 0.0, 0.9920000471174717, 0.0, 0.0, 0.0, 0.0, 0.0, 1.667047122396681E9, 0.0, 2022-10-29 14:38:42.396
95.0, -2937.921419041697, -2013.8444985901006, 16018.191594867501, 7879.187567547895, 0.0, 0.0, 0.9920000471174717, 0.0, 0.0, 0.0, 0.0, 0.0, 1.667047122412336E9, 0.0, 2022-10-29 14:38:42.412
95.0, -2846.983881669119, -1915.7039139028639, 16208.681529160589, 8093.210822312161, 0.0, 0.0, 0.9920000471174717, 0.0, 0.0, 0.0, 0.0, 0.0, 1.667047122412336E9, 0.0, 2022-10-29 14:38:42.412
96.0, -2862.6578023834154, -1911.2964418050833, 16279.1992127751, 8020.406189874746, 0.0, 0.0, 0.9920000471174717, 0.0, 0.0, 0.0, 0.0, 0.0, 1.6670471224129841E9, 0.0, 2022-10-29 14:38:42.412
96.0, -2752.648645186797, -1818.8573346002959, 16131.49747387506, 8118.50563566247, 0.0, 0.0, 0.9920000471174717, 0.0, 0.0, 0.0, 0.0, 0.0, 1.6670471224129841E9, 0.0, 2022-10-29 14:38:42.412
97.0, -2970.6492835539393, -2031.8539868267253, 15974.322568387259, 7894.7156321639195, 0.0, 0.0, 0.9920000471174717, 0.0, 0.0, 0.0, 0.0, 0.0, 1.667047122443046E9, 0.0, 2022-10-29 14:38:42.443
97.0, -2894.331015108153, -1949.1068303571083, 16167.553849347867, 8064.03960265778, 0.0, 0.0, 0.9920000471174717, 0.0, 0.0, 0.0, 0.0, 0.0, 1.667047122443046E9, 0.0, 2022-10-29 14:38:42.443
98.0, -2896.6534929806367, -1954.163175097201, 16269.22115969332, 8006.104812444188, 0.0, 0.0, 0.9920000471174717, 0.0, 0.0, 0.0, 0.0, 0.0, 1.6670471224437258E9, 0.0, 2022-10-29 14:38:42.443
98.0, -2764.2797340489924, -1795.2548259799369, 16133.509540051222, 8177.4838579637, 0.0, 0.0, 0.9920000471174717, 0.0, 0.0, 0.0, 0.0, 0.0, 1.6670471224437258E9, 0.0, 2022-10-29 14:38:42.443
99.0, -2948.957863810938, -2002.63414847292, 16011.628070445266, 8385.654169297311, 0.0, 0.0, 0.9920000471174717, 0.0, 0.0, 0.0, 0.0, 0.0, 1.6670471224445822E9, 0.0, 2022-10-29 14:38:42.444
99.0, -2838.771061366424, -1919.5803202069364, 16232.901121273637, 8614.072298991028, 0.0, 0.0, 0.9920000471174717, 0.0, 0.0, 0.0, 0.0, 0.0, 1.6670471224445822E9, 0.0, 2022-10-29 14:38:42.444
100.0, -2803.4159171353094, -1851.8376423595473, 16377.913872105535, 8609.629297843669, 0.0, 0.0, 0.9920000471174717, 0.0, 0.0, 0.0, 0.0, 0.0, 1.6670471224573894E9, 0.0, 2022-10-29 14:38:42.457
100.0, -2706.0850207884796, -1760.771078438498, 16188.568347198889, 8738.324865168892, 0.0, 0.0, 0.9920000471174717, 0.0, 0.0, 0.0, 0.0, 0.0, 1.6670471224573894E9, 0.0, 2022-10-29 14:38:42.457
0.0, 609.6710109766573, 541.7656474811956, 896.8897177237086, -480.7660092539154, 0.0, 0.0, 0.9920000471174717, 0.0, 0.0, 0.0, 0.0, 0.0, 1.6670471224582896E9, 0.0, 2022-10-29 14:38:42.458
1.0, 734.7201758450828, 671.183015497867, 1127.8528493372723, -303.7864635507576, 0.0, 0.0, 0.9920000471174717, 0.0, 0.0, 0.0, 0.0, 0.0, 1.6670471224716702E9, 0.0, 2022-10-29 14:38:42.471
1.0, 764.4617302427068, 718.7564128842205, 1264.925792563241, -394.19106517964974, 0.0, 0.0, 0.9920000471174717, 0.0, 0.0, 0.0, 0.0, 0.0, 1.6670471224716702E9, 0.0, 2022-10-29 14:38:42.471
2.0, 898.97097204905, 858.6024919273332, 1111.3524107327685, -321.9006689861417, 0.0, 0.0, 0.9920000471174717, 0.0, 0.0, 0.0, 0.0, 0.0, 1.6670471224873044E9, 0.0, 2022-10-29 14:38:42.487
2.0, 728.7438157158904, 669.9899874120019, 995.2341269585304, -77.84601757768542, 0.0, 0.0, 0.9920000471174717, 0.0, 0.0, 0.0, 0.0, 0.0, 1.6670471224873044E9, 0.0, 2022-10-29 14:38:42.487
3.0, 779.5484866639599, 735.3877479871735, 1163.3818989163265, 145.82243917230517, 0.0, 0.0, 0.9920000471174717, 0.0, 0.0, 0.0, 0.0, 0.0, 1.6670471224879673E9, 0.0, 2022-10-29 14:38:42.487
3.0, 729.2131731603295, 681.0133425313979, 1203.0341881965287, 109.81842229887843, 0.0, 0.0, 0.9920000471174717, 0.0, 0.0, 0.0, 0.0, 0.0, 1.6670471224879673E9, 0.0, 2022-10-29 14:38:42.487
4.0, 873.2778593534604, 834.0313492184505, 1062.6776128094643, 208.98373957397416, 0.0, 0.0, 0.9920000471174717, 0.0, 0.0, 0.0, 0.0, 0.0, 1.6670471225016208E9, 0.0, 2022-10-29 14:38:42.501
4.0, 644.2931348164566, 1065.8079090723768, 929.194973540958, 399.45684431726113, 0.0, 0.0, 0.9920000471174717, 0.0, 0.0, 0.0, 0.0, 0.0, 1.6670471225016208E9, 0.0, 2022-10-29 14:38:42.501
5.0, 743.5070707909763, 1168.223199408967, 1118.9892864422873, 560.467017209623, 0.0, 0.0, 0.9920000471174717, 0.0, 0.0, 0.0, 0.0, 0.0, 1.6670471225172913E9, 0.0, 2022-10-29 14:38:42.517
5.0, 692.2480019982904, 1153.1888015870936, 1172.0266776639037, 575.7463784785941, 0.0, 0.0, 0.9920000471174717, 0.0, 0.0, 0.0, 0.0, 0.0, 1.6670471225172913E9, 0.0, 2022-10-29 14:38:42.517
6.0, 811.8200833816081, 1269.5857079080306, 1003.7031304081902, 723.6500719762407, 0.0, 0.0, 0.9920000471174717, 0.0, 0.0, 0.0, 0.0, 0.0, 1.6670471225179625E9, 0.0, 2022-10-29 14:38:42.517
6.0, 605.5365515756421, 1511.2056844453327, 874.2408835920505, 487.69043402187526, 0.0, 0.0, 0.9920000471174717, 0.0, 0.0, 0.0, 0.0, 0.0, 1.6670471225179625E9, 0.0, 2022-10-29 14:38:42.517
7.0, 700.5431001000106, 1636.8046146072447, 1096.8939575040713, 714.5639850338921, 0.0, 0.0, 0.9920000471174717, 0.0, 0.0, 0.0, 0.0, 0.0, 1.6670471225316794E9, 0.0, 2022-10-29 14:38:42.531
7.0, 673.0323960259557, 1619.2308247154579, 1177.6290477975272, 722.6589984879829, 0.0, 0.0, 0.9920000471174717, 0.0, 0.0, 0.0, 0.0, 0.0, 1.6670471225316794E9, 0.0, 2022-10-29 14:38:42.531
8.0, 799.4185751285404, 1753.149162328802, 1024.582991860807, 858.6062318272889, 0.0, 0.0, 0.9920000471174717, 0.0, 0.0, 0.0, 0.0, 0.0, 1.6670471225472288E9, 0.0, 2022-10-29 14:38:42.547
8.0, 623.4992910628207, 1563.3847686271183, 902.9558354518376, 1089.0177281973884, 0.0, 0.0, 0.9920000471174717, 0.0, 0.0, 0.0, 0.0, 0.0, 1.6670471225472288E9, 0.0, 2022-10-29 14:38:42.547
9.0, 701.4032770898193, 1620.3228755025193, 1120.5338651239872, 1305.5429760320112, 0.0, 0.0, 0.9920000471174717, 0.0, 0.0, 0.0, 0.0, 0.0, 1.6670471225479612E9, 0.0, 2022-10-29 14:38:42.547
9.0, 667.7105183890089, 1622.0226600323804, 1208.011995037552, 1301.1934723835438, 0.0, 0.0, 0.9920000471174717, 0.0, 0.0, 0.0, 0.0, 0.0, 1.6670471225479612E9, 0.0, 2022-10-29 14:38:42.547
10.0, 774.2340888269246, 1728.3741950723343, 1011.291387418285, 1393.275419142563, 0.0, 0.0, 1.008000047877431, 0.0, 0.0, 0.0, 0.0, 0.0, 1.6670471225615811E9, 0.0, 2022-10-29 14:38:42.561
10.0, 620.2455781013705, 1554.5380352819338, 891.276127890218, 1613.0356804388575, 0.0, 0.0, 1.008000047877431, 0.0, 0.0, 0.0, 0.0, 0.0, 1.6670471225615811E9, 0.0, 2022-10-29 14:38:42.561
11.0, 672.2283175354823, 1613.2638143361546, 1102.6646231357008, 1823.341474647168, 0.0, 0.0, 1.008000047877431, 0.0, 0.0, 0.0, 0.0, 0.0, 1.6670471225773072E9, 0.0, 2022-10-29 14:38:42.577
11.0, 638.6103568337858, 1584.7208978743292, 1178.522883886937, 1803.912694377359, 0.0, 0.0, 1.008000047877431, 0.0, 0.0, 0.0, 0.0, 0.0, 1.6670471225773072E9, 0.0, 2022-10-29 14:38:42.577
12.0, 759.1473324056715, 1698.937442521099, 1008.976389345713, 1902.9508550539613, 0.0, 0.0, 1.008000047877431, 0.0, 0.0, 0.0, 0.0, 0.0, 1.6670471225779924E9, 0.0, 2022-10-29 14:38:42.577
12.0, 606.8230771603994, 1540.2067386517301, 904.1488635377027, 2097.803382645361, 0.0, 0.0, 1.008000047877431, 0.0, 0.0, 0.0, 0.0, 0.0, 1.6670471225779924E9, 0.0, 2022-10-29 14:38:42.577
13.0, 683.7659088987857, 1610.582306067925, 1108.5026069665328, 2311.4414277141914, 0.0, 0.0, 1.008000047877431, 0.0, 0.0, 0.0, 0.0, 0.0, 1.6670471225915728E9, 0.0, 2022-10-29 14:38:42.591
13.0, 600.6541121834889, 1546.7235143245198, 1159.9580205068924, 2291.885490845889, 0.0, 0.0, 1.008000047877431, 0.0, 0.0, 0.0, 0.0, 0.0, 1.6670471225915728E9, 0.0, 2022-10-29 14:38:42.591
14.0, 731.6104490319267, 1678.5587276625447, 988.5266163880005, 2355.0879301470704, 0.0, 0.0, 1.008000047877431, 0.0, 0.0, 0.0, 0.0, 0.0, 1.6670471226074152E9, 0.0, 2022-10-29 14:38:42.607
14.0, 553.3088486944325, 1487.6387048745528, 874.6560124871321, 2571.8300921791233, 0.0, 0.0, 1.008000047877431, 0.0, 0.0, 0.0, 0.0, 0.0, 1.6670471226074152E9, 0.0, 2022-10-29 14:38:42.607
15.0, 654.8003837419674, 1590.887992901262, 1084.6532649490982, 2777.4946705424227, 0.0, 0.0, 1.008000047877431, 0.0, 0.0, 0.0, 0.0, 0.0, 1.667047122608009E9, 0.0, 2022-10-29 14:38:42.608
15.0, 547.1473635174334, 1491.4328333796002, 1102.8534880834632, 2780.589437755756, 0.0, 0.0, 1.008000047877431, 0.0, 0.0, 0.0, 0.0, 0.0, 1.667047122608009E9, 0.0, 2022-10-29 14:38:42.608
16.0, 683.6088331006467, 1641.1821675053798, 952.6273167133331, 2815.0507458974607, 0.0, 0.0, 1.008000047877431, 0.0, 0.0, 0.0, 0.0, 0.0, 1.667047122638024E9, 0.0, 2022-10-29 14:38:42.638
16.0, 523.1727348514833, 1452.008677996695, 826.2392676607706, 3040.978102220688, 0.0, 0.0, 1.008000047877431, 0.0, 0.0, 0.0, 0.0, 0.0, 1.667047122638024E9, 0.0, 2022-10-29 14:38:42.638
17.0, 623.2580675156787, 1535.5449533569627, 1066.3464546659961, 3250.9734847326763, 0.0, 0.0, 1.008000047877431, 0.0, 0.0, 0.0, 0.0, 0.0, 1.6670471226387067E9, 0.0, 2022-10-29 14:38:42.638
17.0, 525.2278098771349, 1454.4377430179156, 1117.4540575104766, 3252.71440816205, 0.0, 0.0, 1.008000047877431, 0.0, 0.0, 0.0, 0.0, 0.0, 1.6670471226387067E9, 0.0, 2022-10-29 14:38:42.638
18.0, 652.5527038685977, 1616.0949186026119, 929.1183055918664, 3296.600264192093, 0.0, 0.0, 1.008000047877431, 0.0, 0.0, 0.0, 0.0, 0.0, 1.6670471226394193E9, 0.0, 2022-10-29 14:38:42.639
18.0, 511.5902646887116, 1466.5718484241515, 825.0051006753929, 3528.2347078477032, 0.0, 0.0, 1.008000047877431, 0.0, 0.0, 0.0, 0.0, 0.0, 1.6670471226394193E9, 0.0, 2022-10-29 14:38:42.639
19.0, 584.7632772717625, 1533.4880083813332, 1033.1473627593368, 3721.7932300544344, 0.0, 0.0, 1.008000047877431, 0.0, 0.0, 0.0, 0.0, 0.0, 1.6670471226516123E9, 0.0, 2022-10-29 14:38:42.651
19.0, 479.68330821674317, 1420.4495322206058, 1075.1782284113578, 3714.4368468415923, 0.0, 0.0, 1.008000047877431, 0.0, 0.0, 0.0, 0.0, 0.0, 1.6670471226516123E9, 0.0, 2022-10-29 14:38:42.651
20.0, 613.8522191271186, 1570.6027755415998, 907.5540424473584, 3771.7003250131384, 0.0, 0.0, 1.008000047877431, 0.0, 0.0, 0.0, 0.0, 0.0, 1.6670471226673646E9, 0.0, 2022-10-29 14:38:42.667
20.0, 499.1887564356439, 1428.6380431735888, 831.9126958935522, 3993.0612634904683, 0.0, 0.0, 1.008000047877431, 0.0, 0.0, 0.0, 0.0, 0.0, 1.6670471226673646E9, 0.0, 2022-10-29 14:38:42.667
21.0, 574.8824615888298, 1506.100721005816, 1015.4688556687906, 4199.073652549647, 0.0, 0.0, 1.008000047877431, 0.0, 0.0, 0.0, 0.0, 0.0, 1.66704712266816E9, 0.0, 2022-10-29 14:38:42.668
21.0, 483.79719816800207, 1430.1022140062414, 1069.3215450807475, 4201.771990367677, 0.0, 0.0, 1.008000047877431, 0.0, 0.0, 0.0, 0.0, 0.0, 1.66704712266816E9, 0.0, 2022-10-29 14:38:42.668
22.0, 585.2831233656034, 1542.9499552692287, 893.2077862173319, 4237.059816399589, 0.0, 0.0, 1.008000047877431, 0.0, 0.0, 0.0, 0.0, 0.0, 1.667047122681706E9, 0.0, 2022-10-29 14:38:42.681
22.0, 495.7405686764978, 1440.7627988299355, 831.8528574942611, 4446.527873017825, 0.0, 0.0, 1.008000047877431, 0.0, 0.0, 0.0, 0.0, 0.0, 1.667047122681706E9, 0.0, 2022-10-29 14:38:42.681
23.0, 568.8313034605235, 1512.589447428938, 1025.0018606558442, 4675.989434799179, 0.0, 0.0, 1.008000047877431, 0.0, 0.0, 0.0, 0.0, 0.0, 1.6670471226973093E9, 0.0, 2022-10-29 14:38:42.697
23.0, 463.78873340506107, 1432.892179373186, 1060.2747270879336, 4688.613467099611, 0.0, 0.0, 1.008000047877431, 0.0, 0.0, 0.0, 0.0, 0.0, 1.6670471226973093E9, 0.0, 2022-10-29 14:38:42.697
24.0, 598.0249625146389, 1545.2425139420666, 910.2542502153665, 4744.283747890033, 0.0, 0.0, 1.008000047877431, 0.0, 0.0, 0.0, 0.0, 0.0, 1.6670471226980324E9, 0.0, 2022-10-29 14:38:42.698
24.0, 496.30903346976265, 1416.6292244158685, 818.3817378538661, 4965.435251969844, 0.0, 0.0, 1.008000047877431, 0.0, 0.0, 0.0, 0.0, 0.0, 1.6670471226980324E9, 0.0, 2022-10-29 14:38:42.698
25.0, 581.573142609559, 1505.71551131038, 1011.134311620146, 5158.144816886634, 0.0, 0.0, 1.008000047877431, 0.0, 0.0, 0.0, 0.0, 0.0, 1.6670471227116444E9, 0.0, 2022-10-29 14:38:42.711
25.0, 446.0204687155783, 1396.8956422996707, 1060.2784669878893, 5175.806494427379, 0.0, 0.0, 1.008000047877431, 0.0, 0.0, 0.0, 0.0, 0.0, 1.6670471227116444E9, 0.0, 2022-10-29 14:38:42.711
26.0, 595.5603684438393, 1539.46062861057, 890.5487173488364, 5245.161069155671, 0.0, 0.0, 1.008000047877431, 0.0, 0.0, 0.0, 0.0, 0.0, 1.667047122727253E9, 0.0, 2022-10-29 14:38:42.727
26.0, 503.41858328552917, 1444.1997668892145, 836.2397601422854, 5005.6522661433555, 0.0, 0.0, 1.008000047877431, 0.0, 0.0, 0.0, 0.0, 0.0, 1.667047122727253E9, 0.0, 2022-10-29 14:38:42.727
27.0, 604.9512572325766, 1542.6096243732609, 1050.4257005546242, 5187.770434385631, 0.0, 0.0, 1.008000047877431, 0.0, 0.0, 0.0, 0.0, 0.0, 1.6670471227280133E9, 0.0, 2022-10-29 14:38:42.728
27.0, 496.4231004184112, 1451.8310327487998, 1069.4150425796397, 5250.800838288851, 0.0, 0.0, 1.008000047877431, 0.0, 0.0, 0.0, 0.0, 0.0, 1.6670471227280133E9, 0.0, 2022-10-29 14:38:42.728
28.0, 623.3814842142165, 1579.9674850306474, 918.2576361205429, 5294.312704323325, 0.0, 0.0, 1.008000047877431, 0.0, 0.0, 0.0, 0.0, 0.0, 1.6670471227415857E9, 0.0, 2022-10-29 14:38:42.741
28.0, 517.5628849179484, 1436.6302093788981, 839.934781298507, 5471.411926825065, 0.0, 0.0, 1.008000047877431, 0.0, 0.0, 0.0, 0.0, 0.0, 1.6670471227415857E9, 0.0, 2022-10-29 14:38:42.741
29.0, 634.0439389878884, 1564.9106478090398, 1067.2103715557605, 5620.043030864093, 0.0, 0.0, 1.008000047877431, 0.0, 0.0, 0.0, 0.0, 0.0, 1.667047122757357E9, 0.0, 2022-10-29 14:38:42.757
29.0, 496.44553981814533, 1447.0140416058712, 1092.6921799038537, 5691.94447746221, 0.0, 0.0, 1.008000047877431, 0.0, 0.0, 0.0, 0.0, 0.0, 1.667047122757357E9, 0.0, 2022-10-29 14:38:42.757
30.0, 636.0560051640496, 1604.4974888400175, 922.5959200691432, 5743.605585500132, 0.0, 0.0, 1.008000047877431, 0.0, 0.0, 0.0, 0.0, 0.0, 1.667047122758046E9, 0.0, 2022-10-29 14:38:42.758
30.0, 580.0192141779698, 1504.471994575113, 882.1844310979359, 5504.81484327931, 0.0, 0.0, 1.008000047877431, 0.0, 0.0, 0.0, 0.0, 0.0, 1.667047122758046E9, 0.0, 2022-10-29 14:38:42.758
31.0, 660.7954433709383, 1606.554433815647, 1077.7419298309833, 5620.041160914116, 0.0, 0.0, 1.008000047877431, 0.0, 0.0, 0.0, 0.0, 0.0, 1.6670471227716E9, 0.0, 2022-10-29 14:38:42.771
31.0, 513.5368826156482, 1457.459582182113, 1101.4884245996363, 5617.352172845975, 0.0, 0.0, 1.008000047877431, 0.0, 0.0, 0.0, 0.0, 0.0, 1.6670471227716E9, 0.0, 2022-10-29 14:38:42.771
32.0, 603.1748047536239, 1559.2708786758594, 863.2175284726545, 5637.863654152956, 0.0, 0.0, 1.008000047877431, 0.0, 0.0, 0.0, 0.0, 0.0, 1.6670471227872424E9, 0.0, 2022-10-29 14:38:42.787
32.0, 536.0828694985248, 1486.2063231915236, 824.7433076784946, 5840.906562647317, 0.0, 0.0, 1.008000047877431, 0.0, 0.0, 0.0, 0.0, 0.0, 1.6670471227872424E9, 0.0, 2022-10-29 14:38:42.787
33.0, 681.8024614220485, 1604.9537566346116, 1069.555288827978, 5958.290802556556, 0.0, 0.0, 1.008000047877431, 0.0, 0.0, 0.0, 0.0, 0.0, 1.667047122788013E9, 0.0, 2022-10-29 14:38:42.788
33.0, 574.2653780961409, 1529.5311942282133, 1133.838559216354, 6015.685177226551, 0.0, 0.0, 1.008000047877431, 0.0, 0.0, 0.0, 0.0, 0.0, 1.667047122788013E9, 0.0, 2022-10-29 14:38:42.788
34.0, 617.2031694874167, 1579.5523561355658, 903.1820993991569, 6108.948932371568, 0.0, 0.0, 1.008000047877431, 0.0, 0.0, 0.0, 0.0, 0.0, 1.6670471228016236E9, 0.0, 2022-10-29 14:38:42.801
34.0, 528.6255089868791, 1470.4912635777146, 831.0525189037435, 6322.35136374319, 0.0, 0.0, 1.008000047877431, 0.0, 0.0, 0.0, 0.0, 0.0, 1.6670471228016236E9, 0.0, 2022-10-29 14:38:42.801
35.0, 685.0935733830556, 1603.2109632552601, 1051.839382737875, 6096.5081551689655, 0.0, 0.0, 1.008000047877431, 0.0, 0.0, 0.0, 0.0, 0.0, 1.667047122817285E9, 0.0, 2022-10-29 14:38:42.817
35.0, 574.7366054905578, 1514.5977737051435, 1139.0108408550732, 6320.017666170839, 0.0, 0.0, 1.008000047877431, 0.0, 0.0, 0.0, 0.0, 0.0, 1.667047122817285E9, 0.0, 2022-10-29 14:38:42.817
36.0, 512.6336967763491, 1493.267254307866, 1336.6795131131075, 6094.9878858369775, 0.0, 0.0, 1.008000047877431, 0.0, 0.0, 0.0, 0.0, 0.0, 1.6670471228181243E9, 0.0, 2022-10-29 14:38:42.818
36.0, 473.02628629561514, 1424.7504171696492, 1278.6044766511768, 5867.457982382737, 0.0, 0.0, 1.008000047877431, 0.0, 0.0, 0.0, 0.0, 0.0, 1.6670471228181243E9, 0.0, 2022-10-29 14:38:42.818
37.0, 303.5564597034827, 1240.3920488539152, 1173.229055499658, 6011.129979080521, 0.0, 0.0, 1.008000047877431, 0.0, 0.0, 0.0, 0.0, 0.0, 1.6670471228315911E9, 0.0, 2022-10-29 14:38:42.831
37.0, 340.4075639168732, 1283.305530895479, 1375.9634222476743, 6130.595473315101, 0.0, 0.0, 1.008000047877431, 0.0, 0.0, 0.0, 0.0, 0.0, 1.6670471228315911E9, 0.0, 2022-10-29 14:38:42.831
38.0, 371.8563826442696, 1319.8817524621263, 1138.5863622101024, 6085.080890854355, 0.0, 0.0, 1.008000047877431, 0.0, 0.0, 0.0, 0.0, 0.0, 1.6670471228472097E9, 0.0, 2022-10-29 14:38:42.847
38.0, 313.84118458162993, 1239.247639467474, 1070.4061160678975, 5863.239375232719, 0.0, 0.0, 1.008000047877431, 0.0, 0.0, 0.0, 0.0, 0.0, 1.6670471228472097E9, 0.0, 2022-10-29 14:38:42.847
39.0, 403.8063479657285, 1321.2692553456873, 1278.4885397525504, 5700.458359711338, 0.0, 0.0, 1.008000047877431, 0.0, 0.0, 0.0, 0.0, 0.0, 1.6670471228479955E9, 0.0, 2022-10-29 14:38:42.847
39.0, 256.057860316243, 1195.3617834374309, 1289.1865235758014, 5682.102930728812, 0.0, 0.0, 1.008000047877431, 0.0, 0.0, 0.0, 0.0, 0.0, 1.6670471228479955E9, 0.0, 2022-10-29 14:38:42.847
40.0, 183.0082644317299, 1144.1906022937037, 1468.8363578473218, 5782.506154889241, 0.0, 0.0, 1.008000047877431, 0.0, 0.0, 0.0, 0.0, 0.0, 1.6670471228616464E9, 0.0, 2022-10-29 14:38:42.861
40.0, 115.8864099769853, 1056.1290479870513, 1370.0113714681938, 5895.896181645803, 0.0, 0.0, 1.008000047877431, 0.0, 0.0, 0.0, 0.0, 0.0, 1.6670471228616464E9, 0.0, 2022-10-29 14:38:42.861
41.0, 337.9822387956083, 1264.2077317717485, 1160.9808831447735, 6054.329563468695, 0.0, 0.0, 1.008000047877431, 0.0, 0.0, 0.0, 0.0, 0.0, 1.6670471228772938E9, 0.0, 2022-10-29 14:38:42.877
41.0, 236.90022279322147, 1166.5290247290395, 1231.2330338624306, 6183.567416287493, 0.0, 0.0, 1.008000047877431, 0.0, 0.0, 0.0, 0.0, 0.0, 1.6670471228772938E9, 0.0, 2022-10-29 14:38:42.877
42.0, 139.23834530031309, 1092.1629840601236, 1438.5656076059677, 6289.558050981723, 0.0, 0.0, 1.008000047877431, 0.0, 0.0, 0.0, 0.0, 0.0, 1.6670471228780355E9, 0.0, 2022-10-29 14:38:42.878
42.0, 73.9228625241667, 1024.0612758169882, 1355.1826681438833, 6407.278881886974, 0.0, 0.0, 1.008000047877431, 0.0, 0.0, 0.0, 0.0, 0.0, 1.6670471228780355E9, 0.0, 2022-10-29 14:38:42.878
43.0, -138.52215445879847, 1268.7161811683327, 1158.9800366684794, 6568.386292178184, 0.0, 0.0, 1.008000047877431, 0.0, 0.0, 0.0, 0.0, 0.0, 1.6670471228916252E9, 0.0, 2022-10-29 14:38:42.891
43.0, -244.17806810699403, 1202.1908407565206, 1240.6538418508135, 6747.735064503271, 0.0, 0.0, 1.008000047877431, 0.0, 0.0, 0.0, 0.0, 0.0, 1.6670471228916252E9, 0.0, 2022-10-29 14:38:42.891
44.0, -392.9755976940505, 1051.6280783903785, 1408.687546859961, 6832.7336407462135, 0.0, 0.0, 1.008000047877431, 0.0, 0.0, 0.0, 0.0, 0.0, 1.6670471229072733E9, 0.0, 2022-10-29 14:38:42.907
44.0, -453.5451474264264, 973.0247310716659, 1306.4442919213325, 6931.631555174477, 0.0, 0.0, 1.008000047877431, 0.0, 0.0, 0.0, 0.0, 0.0, 1.6670471229072733E9, 0.0, 2022-10-29 14:38:42.907
45.0, -614.4880021195859, 782.3608914306387, 1170.8616988277063, 7073.156849297695, 0.0, 0.0, 1.008000047877431, 0.0, 0.0, 0.0, 0.0, 0.0, 1.6670471229079869E9, 0.0, 2022-10-29 14:38:42.907
45.0, -731.7039465308189, 683.9379442967474, 1267.3193285348825, 7254.816879795399, 0.0, 0.0, 1.008000047877431, 0.0, 0.0, 0.0, 0.0, 0.0, 1.6670471229079869E9, 0.0, 2022-10-29 14:38:42.907
46.0, -960.2772820726968, 500.8193528163247, 1348.6322333714925, 7349.520496423356, 0.0, 0.0, 1.008000047877431, 0.0, 0.0, 0.0, 0.0, 0.0, 1.6670471229216475E9, 0.0, 2022-10-29 14:38:42.921
46.0, -933.1704871938564, 488.3336968142539, 1326.965122978203, 7415.59330894053, 0.0, 0.0, 1.008000047877431, 0.0, 0.0, 0.0, 0.0, 0.0, 1.6670471229216475E9, 0.0, 2022-10-29 14:38:42.921
47.0, -1020.5457698586397, 392.1023310543969, 1203.2267930442467, 7546.7441205866635, 0.0, 0.0, 1.008000047877431, 0.0, 0.0, 0.0, 0.0, 0.0, 1.6670471229536445E9, 0.0, 2022-10-29 14:38:42.953
47.0, -930.2814144780859, 509.2677868162282, 978.2680708095431, 7786.492277196143, 0.0, 0.0, 1.008000047877431, 0.0, 0.0, 0.0, 0.0, 0.0, 1.6670471229536445E9, 0.0, 2022-10-29 14:38:42.953
48.0, -1134.3191363606602, 286.5679641547613, 970.0851697064936, 7881.162234724499, 0.0, 0.0, 1.008000047877431, 0.0, 0.0, 0.0, 0.0, 0.0, 1.6670471229543664E9, 0.0, 2022-10-29 14:38:42.954
48.0, -1241.020352046471, 202.37720630224794, 876.6138501139358, 8096.746897720266, 0.0, 0.0, 1.008000047877431, 0.0, 0.0, 0.0, 0.0, 0.0, 1.6670471229543664E9, 0.0, 2022-10-29 14:38:42.954
49.0, -1153.95548107801, 291.2409691493958, 829.7398140192963, 8192.146135739982, 0.0, 0.0, 1.008000047877431, 0.0, 0.0, 0.0, 0.0, 0.0, 1.6670471229551346E9, 0.0, 2022-10-29 14:38:42.955
49.0, -1246.329140033573, 182.58004588680342, 613.0556204365566, 8001.540264548268, 0.0, 0.0, 1.008000047877431, 0.0, 0.0, 0.0, 0.0, 0.0, 1.6670471229551346E9, 0.0, 2022-10-29 14:38:42.955
50.0, -1197.4617372625507, 208.1329123340547, 555.0722115235403, 7931.893977623433, 0.0, 0.0, 1.008000047877431, 0.0, 0.0, 0.0, 0.0, 0.0, 1.667047122955827E9, 0.0, 2022-10-29 14:38:42.955
50.0, -1277.7386898114346, 171.4557134686038, 704.4606453035958, 7801.442527269013, 0.0, 0.0, 1.008000047877431, 0.0, 0.0, 0.0, 0.0, 0.0, 1.667047122955827E9, 0.0, 2022-10-29 14:38:42.955
51.0, -1291.5295708980411, 162.75109632173553, 560.6297028576955, 7732.377794787288, 0.0, -0.01600000075995922, 1.008000047877431, 0.0, 0.0, 0.0, 0.0, 0.0, 1.667047122966624E9, 0.0, 2022-10-29 14:38:42.966
51.0, -1422.5887549952604, -6.103516727685928, 317.59791408712044, 7533.301050195936, 0.0, -0.01600000075995922, 1.008000047877431, 0.0, 0.0, 0.0, 0.0, 0.0, 1.667047122966624E9, 0.0, 2022-10-29 14:38:42.966
52.0, -1551.267492770683, -171.73246606532484, 170.1373987342231, 7506.3120621657, 0.0, -0.01600000075995922, 1.008000047877431, 0.0, 0.0, 0.0, 0.0, 0.0, 1.667047122981572E9, 0.0, 2022-10-29 14:38:42.981
52.0, -1675.8585198945366, -232.09071145020425, 285.29452821984887, 7344.538949682377, 0.0, -0.01600000075995922, 1.008000047877431, 0.0, 0.0, 0.0, 0.0, 0.0, 1.667047122981572E9, 0.0, 2022-10-29 14:38:42.981
53.0, -1643.519604977686, -176.59059610776603, 149.8260020748712, 7283.634678903967, 0.0, -0.01600000075995922, 1.008000047877431, 0.0, 0.0, 0.0, 0.0, 0.0, 1.667047122997316E9, 0.0, 2022-10-29 14:38:42.997
53.0, -1762.543791017495, -338.395497740712, -73.26090023200959, 7110.277226307895, 0.0, -0.01600000075995922, 1.008000047877431, 0.0, 0.0, 0.0, 0.0, 0.0, 1.667047122997316E9, 0.0, 2022-10-29 14:38:42.997
54.0, -1578.1648532520048, -178.35956878680736, 156.5017234957777, 7086.523251739331, 0.0, -0.01600000075995922, 1.008000047877431, 0.0, 0.0, 0.0, 0.0, 0.0, 1.6670471229980083E9, 0.0, 2022-10-29 14:38:42.998
54.0, -1717.6406821995042, -272.74342396855354, 263.51335087791085, 6880.664198578335, 0.0, -0.01600000075995922, 1.008000047877431, 0.0, 0.0, 0.0, 0.0, 0.0, 1.6670471229980083E9, 0.0, 2022-10-29 14:38:42.998
55.0, -1641.9451070963405, -172.17751416005194, 166.05342798260972, 6810.642051707953, 0.0, -0.01600000075995922, 1.008000047877431, 0.0, 0.0, 0.0, 0.0, 0.0, 1.6670471230115874E9, 0.0, 2022-10-29 14:38:43.011
55.0, -1714.530955386348, -305.22632503369823, -48.00161593127996, 6625.990101245698, 0.0, -0.01600000075995922, 1.008000047877431, 0.0, 0.0, 0.0, 0.0, 0.0, 1.6670471230115874E9, 0.0, 2022-10-29 14:38:43.011
56.0, -1637.621782747563, -251.62420891877264, 124.69761427259073, 6629.7300012013875, 0.0, -0.01600000075995922, 1.008000047877431, 0.0, 0.0, 0.0, 0.0, 0.0, 1.6670471230273025E9, 0.0, 2022-10-29 14:38:43.027
56.0, -1754.2917017652653, -302.8496186118573, 223.68341634981334, 6389.591025046539, 0.0, -0.01600000075995922, 1.008000047877431, 0.0, 0.0, 0.0, 0.0, 0.0, 1.6670471230273025E9, 0.0, 2022-10-29 14:38:43.027
57.0, -1635.583537271712, -160.42674849927425, 139.28696399973705, 6302.6233914769255, 0.0, -0.01600000075995922, 1.008000047877431, 0.0, 0.0, 0.0, 0.0, 0.0, 1.6670471230280223E9, 0.0, 2022-10-29 14:38:43.028
57.0, -1644.0450609214604, -215.21067300019786, 11.182300867512822, 6151.099474822171, 0.0, -0.01600000075995922, 1.008000047877431, 0.0, 0.0, 0.0, 0.0, 0.0, 1.6670471230280223E9, 0.0, 2022-10-29 14:38:43.028
58.0, -1688.7181658921763, -284.9598071738146, 102.06373974075541, 6185.884284310043, 0.0, -0.01600000075995922, 1.008000047877431, 0.0, 0.0, 0.0, 0.0, 0.0, 1.667047123057969E9, 0.0, 2022-10-29 14:38:43.057
58.0, -1797.9980425974354, -364.39902213262394, 187.903793473728, 6399.591517528053, 0.0, -0.01600000075995922, 1.008000047877431, 0.0, 0.0, 0.0, 0.0, 0.0, 1.667047123057969E9, 0.0, 2022-10-29 14:38:43.057
59.0, -1641.6178658502176, -176.89539795415476, 133.5649170675315, 6326.162321798038, 0.0, -0.01600000075995922, 1.008000047877431, 0.0, 0.0, 0.0, 0.0, 0.0, 1.6670471230587263E9, 0.0, 2022-10-29 14:38:43.058
59.0, -1576.835318817757, -169.5390147413127, 51.719076487235725, 6157.2329107495025, 0.0, -0.01600000075995922, 1.008000047877431, 0.0, 0.0, 0.0, 0.0, 0.0, 1.6670471230587263E9, 0.0, 2022-10-29 14:38:43.058
60.0, -1723.8994047753513, -319.04151547001675, 74.80360896373168, 6157.722837643698, 0.0, -0.01600000075995922, 0.9920000471174717, 0.0, 0.0, 0.0, 0.0, 0.0, 1.6670471230594585E9, 0.0, 2022-10-29 14:38:43.059
60.0, -1802.5831599431112, -361.407102168072, 170.53569807950407, 6356.343314440455, 0.0, -0.01600000075995922, 0.9920000471174717, 0.0, 0.0, 0.0, 0.0, 0.0, 1.6670471230594585E9, 0.0, 2022-10-29 14:38:43.059
61.0, -1606.264591569081, -136.91586742782965, 145.40544032724574, 6277.285569277126, 0.0, -0.01600000075995922, 0.9920000471174717, 0.0, 0.0, 0.0, 0.0, 0.0, 1.6670471230715911E9, 0.0, 2022-10-29 14:38:43.071
61.0, -1504.9881007689983, -74.83726806333289, 87.97366665769368, 6148.021537158638, 0.0, -0.01600000075995922, 0.9920000471174717, 0.0, 0.0, 0.0, 0.0, 0.0, 1.6670471230715911E9, 0.0, 2022-10-29 14:38:43.071
62.0, -1691.6390277575701, -302.0848090709187, 115.91258927667513, 6149.797989637591, 0.0, -0.01600000075995922, 0.9920000471174717, 0.0, 0.0, 0.0, 0.0, 0.0, 1.667047123087268E9, 0.0, 2022-10-29 14:38:43.087
62.0, -1779.7398510137573, -320.88902604812756, 212.05606738757342, 6337.931786958594, 0.0, -0.01600000075995922, 0.9920000471174717, 0.0, 0.0, 0.0, 0.0, 0.0, 1.667047123087268E9, 0.0, 2022-10-29 14:38:43.087
63.0, -2020.845591307152, -542.7455012695864, 220.78873378410935, 6260.463499276433, 0.0, -0.01600000075995922, 0.9920000471174717, 0.0, 0.0, 0.0, 0.0, 0.0, 1.6670471230880845E9, 0.0, 2022-10-29 14:38:43.088
63.0, -1887.9893852812238, -463.9719885028899, 135.44234684528783, 6077.531902793795, 0.0, -0.01600000075995922, 0.9920000471174717, 0.0, 0.0, 0.0, 0.0, 0.0, 1.6670471230880845E9, 0.0, 2022-10-29 14:38:43.088
64.0, -2064.737057187129, -657.0518035152927, 191.98776422534138, 6120.937181679532, 0.0, -0.01600000075995922, 0.9920000471174717, 0.0, 0.0, 0.0, 0.0, 0.0, 1.667047123101646E9, 0.0, 2022-10-29 14:38:43.101
64.0, -2159.749215561431, -707.8658242132515, 274.4768675980158, 6325.840690401848, 0.0, -0.01600000075995922, 0.9920000471174717, 0.0, 0.0, 0.0, 0.0, 0.0, 1.667047123101646E9, 0.0, 2022-10-29 14:38:43.101
65.0, -2328.1438209163025, -861.4915646431036, 318.3496339782141, 6250.949193789158, 0.0, -0.01600000075995922, 0.9920000471174717, 0.0, 0.0, 0.0, 0.0, 0.0, 1.6670471231173675E9, 0.0, 2022-10-29 14:38:43.117
65.0, -2205.011354775168, -793.4814839488827, 258.95067293196917, 6103.819659582339, 0.0, -0.01600000075995922, 0.9920000471174717, 0.0, 0.0, 0.0, 0.0, 0.0, 1.6670471231173675E9, 0.0, 2022-10-29 14:38:43.117
66.0, -1971.0413435972296, -592.0747816851363, 245.41971489228308, 6190.921929550357, 0.0, -0.01600000075995922, 0.9920000471174717, 0.0, 0.0, 0.0, 0.0, 0.0, 1.6670471231180198E9, 0.0, 2022-10-29 14:38:43.118
66.0, -2109.1932479604147, -651.3634156826884, 312.96791794197634, 6391.696588721592, 0.0, -0.01600000075995922, 0.9920000471174717, 0.0, 0.0, 0.0, 0.0, 0.0, 1.6670471231180198E9, 0.0, 2022-10-29 14:38:43.118
67.0, -2268.8290076190606, -794.6258933353238, 322.3625466306694, 6183.645954186562, 0.0, -0.01600000075995922, 0.9920000471174717, 0.0, 0.0, 0.0, 0.0, 0.0, 1.6670471231316204E9, 0.0, 2022-10-29 14:38:43.131
67.0, -2128.534140581265, -699.7745506591164, 305.7817001771182, 6094.002422198653, 0.0, -0.01600000075995922, 0.9920000471174717, 0.0, 0.0, 0.0, 0.0, 0.0, 1.6670471231316204E9, 0.0, 2022-10-29 14:38:43.131
68.0, -2345.564274909906, -458.68750986550003, 339.1509575317614, 6290.60148306936, 0.0, -0.01600000075995922, 0.9920000471174717, 0.0, 0.0, 0.0, 0.0, 0.0, 1.6670471231473184E9, 0.0, 2022-10-29 14:38:43.147
68.0, -2543.176848668605, -616.3953510969877, 367.4638701463118, 6447.3500399622135, 0.0, -0.01600000075995922, 0.9920000471174717, 0.0, 0.0, 0.0, 0.0, 0.0, 1.6670471231473184E9, 0.0, 2022-10-29 14:38:43.147
69.0, -2728.4608422233723, -780.3506952044554, 339.4052707287483, 6645.013102370314, 0.0, -0.01600000075995922, 0.9920000471174717, 0.0, 0.0, 0.0, 0.0, 0.0, 1.667047123148049E9, 0.0, 2022-10-29 14:38:43.148
69.0, -2566.1566639463417, -652.9547431138344, 312.9286489924416, 6523.752456157003, 0.0, -0.01600000075995922, 0.9920000471174717, 0.0, 0.0, 0.0, 0.0, 0.0, 1.667047123148049E9, 0.0, 2022-10-29 14:38:43.148
70.0, -2394.168014734052, -500.55568986944854, 308.3996301461011, 6660.18400654057, 0.0, -0.01600000075995922, 0.9920000471174717, 0.0, 0.0, 0.0, 0.0, 0.0, 1.6670471231616418E9, 0.0, 2022-10-29 14:38:43.161
70.0, -2580.7030048239976, -630.3414380317554, 284.67370482720435, 6785.580982104875, 0.0, -0.01600000075995922, 0.9920000471174717, 0.0, 0.0, 0.0, 0.0, 0.0, 1.6670471231616418E9, 0.0, 2022-10-29 14:38:43.161
71.0, -2736.9242358230986, -796.3799064145423, 308.2986528472975, 6660.799220083281, 0.0, -0.01600000075995922, 0.9920000471174717, 0.0, 0.0, 0.0, 0.0, 0.0, 1.6670471231770303E9, 0.0, 2022-10-29 14:38:43.177
71.0, -2550.4939629319124, -629.6364668901078, 307.18229271052405, 6569.027685020585, 0.0, -0.01600000075995922, 0.9920000471174717, 0.0, 0.0, 0.0, 0.0, 0.0, 1.6670471231770303E9, 0.0, 2022-10-29 14:38:43.177
72.0, -2428.193624530919, -536.5410072430968, 285.06078447261825, 6806.0550644122995, 0.0, -0.01600000075995922, 0.9920000471174717, 0.0, 0.0, 0.0, 0.0, 0.0, 1.6670471231922808E9, 0.0, 2022-10-29 14:38:43.192
72.0, -2625.854816989042, -686.7877480629832, 292.4639164349064, 6928.972486305982, 0.0, -0.01600000075995922, 0.9920000471174717, 0.0, 0.0, 0.0, 0.0, 0.0, 1.6670471231922808E9, 0.0, 2022-10-29 14:38:43.192
73.0, -2773.814608986024, -813.0075016175397, 297.7708344720304, 6741.577319226228, 0.0, -0.01600000075995922, 0.9920000471174717, 0.0, 0.0, 0.0, 0.0, 0.0, 1.6670471231929936E9, 0.0, 2022-10-29 14:38:43.192
73.0, -2541.017056444194, -626.4126731283031, 313.1455631898716, 6621.603198597673, 0.0, -0.01600000075995922, 0.9920000471174717, 0.0, 0.0, 0.0, 0.0, 0.0, 1.6670471231929936E9, 0.0, 2022-10-29 14:38:43.192
74.0, -2446.365798415616, -561.8376905433834, 277.44821811281145, 6376.854795747437, 0.0, -0.01600000075995922, 0.9920000471174717, 0.0, 0.0, 0.0, 0.0, 0.0, 1.6670471232072947E9, 0.0, 2022-10-29 14:38:43.207
74.0, -2647.961365627125, -715.2820458253846, 254.02148479036987, 6485.500759410206, 0.0, -0.01600000075995922, 0.9920000471174717, 0.0, 0.0, 0.0, 0.0, 0.0, 1.6670471232072947E9, 0.0, 2022-10-29 14:38:43.207
75.0, -2792.0541010699235, -838.0947505203076, 270.44712539575994, 6376.116165506188, 0.0, -0.01600000075995922, 0.9920000471174717, 0.0, 0.0, 0.0, 0.0, 0.0, 1.667047123208073E9, 0.0, 2022-10-29 14:38:43.208
75.0, -3008.031453561038, -609.2091333321296, 308.76240044180304, 6301.521990939975, 0.0, -0.01600000075995922, 0.9920000471174717, 0.0, 0.0, 0.0, 0.0, 0.0, 1.667047123208073E9, 0.0, 2022-10-29 14:38:43.208
76.0, -2913.582150130067, -539.517967607826, 270.566802194342, 6499.766607791185, 0.0, -0.01600000075995922, 0.9920000471174717, 0.0, 0.0, 0.0, 0.0, 0.0, 1.6670471232216747E9, 0.0, 2022-10-29 14:38:43.221
76.0, -2670.441904260777, -727.7284328779206, 230.9575217636302, 6506.795749757905, 0.0, -0.01600000075995922, 0.9920000471174717, 0.0, 0.0, 0.0, 0.0, 0.0, 1.6670471232216747E9, 0.0, 2022-10-29 14:38:43.221
77.0, -2801.98353545228, -865.0220302012749, 248.52009195555001, 6278.886246458162, 0.0, -0.01600000075995922, 0.9920000471174717, 0.0, 0.0, 0.0, 0.0, 0.0, 1.667047123237265E9, 0.0, 2022-10-29 14:38:43.237
77.0, -2990.8241738649085, -1074.6303330678493, 264.22019196953624, 6125.18196812924, 0.0, -0.01600000075995922, 0.9920000471174717, 0.0, 0.0, 0.0, 0.0, 0.0, 1.667047123237265E9, 0.0, 2022-10-29 14:38:43.237
78.0, -2914.5769635182805, -1035.9504177761264, 231.14077686145902, 6363.271479108371, 0.0, -0.01600000075995922, 0.9920000471174717, 0.0, 0.0, 0.0, 0.0, 0.0, 1.6670471232380311E9, 0.0, 2022-10-29 14:38:43.238
78.0, -2687.495848058723, -1241.985246235039, 173.5986761432141, 6437.603860677686, 0.0, -0.01600000075995922, 0.9920000471174717, 0.0, 0.0, 0.0, 0.0, 0.0, 1.6670471232380311E9, 0.0, 2022-10-29 14:38:43.238
79.0, -2780.250976809766, -1326.2096631871536, 206.3527199551463, 6255.362275736872, 0.0, -0.01600000075995922, 0.9920000471174717, 0.0, 0.0, 0.0, 0.0, 0.0, 1.6670471232516868E9, 0.0, 2022-10-29 14:38:43.251
79.0, -2973.014770275913, -1547.9913404094987, 254.64604808297008, 6135.930440601893, 0.0, -0.01600000075995922, 0.9920000471174717, 0.0, 0.0, 0.0, 0.0, 0.0, 1.6670471232516868E9, 0.0, 2022-10-29 14:38:43.251
80.0, -2929.8731543370523, -1523.8633758453652, 205.15221206936985, 6376.641621449962, 0.0, -0.01600000075995922, 0.9920000471174717, 0.0, 0.0, 0.0, 0.0, 0.0, 1.667047123267255E9, 0.0, 2022-10-29 14:38:43.267
80.0, -2739.113947247155, -1303.9628683007322, 105.68957274779677, 6417.57295651501, 0.0, -0.01600000075995922, 0.9920000471174717, 0.0, 0.0, 0.0, 0.0, 0.0, 1.667047123267255E9, 0.0, 2022-10-29 14:38:43.267
81.0, -2812.249560830649, -1371.7541648475453, 163.50842606276274, 6213.194903736468, 0.0, -0.01600000075995922, 0.9920000471174717, 0.0, 0.0, 0.0, 0.0, 0.0, 1.667047123267954E9, 0.0, 2022-10-29 14:38:43.267
81.0, -3008.6859360532835, -1597.5711941220798, 199.58724093530327, 6061.962699278258, 0.0, -0.01600000075995922, 0.9920000471174717, 0.0, 0.0, 0.0, 0.0, 0.0, 1.667047123267954E9, 0.0, 2022-10-29 14:38:43.267
82.0, -2954.3171404474415, -1565.5333411516622, 170.1916272835806, 6299.334149465896, 0.01600000075995922, -0.01600000075995922, 0.9920000471174717, 0.0, 0.0, 0.0, 0.0, 0.0, 1.6670471232816207E9, 0.0, 2022-10-29 14:38:43.281
82.0, -2797.3591491570696, -1349.2081779646687, 91.60510951466858, 6347.629347543698, 0.01600000075995922, -0.01600000075995922, 0.9920000471174717, 0.0, 0.0, 0.0, 0.0, 0.0, 1.6670471232816207E9, 0.0, 2022-10-29 14:38:43.281
83.0, -2869.1783179561608, -1427.972340981476, 145.31381277833134, 6128.912518335041, 0.01600000075995922, -0.01600000075995922, 0.9920000471174717, 0.0, 0.0, 0.0, 0.0, 0.0, 1.6670471232972765E9, 0.0, 2022-10-29 14:38:43.297
83.0, -2986.620526314713, -1568.0484238718636, 250.1918272357434, 5973.903014921583, 0.01600000075995922, -0.01600000075995922, 0.9920000471174717, 0.0, 0.0, 0.0, 0.0, 0.0, 1.6670471232972765E9, 0.0, 2022-10-29 14:38:43.297
84.0, -2990.4763631690294, -1612.149324149359, 201.34873381443322, 5743.788840597961, 0.01600000075995922, -0.01600000075995922, 0.9920000471174717, 0.0, 0.0, 0.0, 0.0, 0.0, 1.6670471232980251E9, 0.0, 2022-10-29 14:38:43.298
84.0, -2789.9896762943827, -1835.413871704135, 128.36832607910037, 5831.023877014406, 0.01600000075995922, -0.01600000075995922, 0.9920000471174717, 0.0, 0.0, 0.0, 0.0, 0.0, 1.6670471232980251E9, 0.0, 2022-10-29 14:38:43.298
85.0, -2902.424158612266, -1937.2644371474162, 131.70057693962008, 5656.422907683067, 0.01600000075995922, -0.01600000075995922, 0.9920000471174717, 0.0, 0.0, 0.0, 0.0, 0.0, 1.6670471233116634E9, 0.0, 2022-10-29 14:38:43.311
85.0, -2933.3587410957552, -2003.7355490098707, 332.14425496477634, 5544.190379962791, 0.01600000075995922, -0.01600000075995922, 0.9920000471174717, 0.0, 0.0, 0.0, 0.0, 0.0, 1.6670471233116634E9, 0.0, 2022-10-29 14:38:43.311
86.0, -2969.254300870467, -2085.0484538464807, 253.6811538944021, 5354.246471063234, 0.01600000075995922, -0.01600000075995922, 0.9920000471174717, 0.0, 0.0, 0.0, 0.0, 0.0, 1.6670471233272865E9, 0.0, 2022-10-29 14:38:43.327
86.0, -2758.06028042268, -2313.4030052409507, 156.60831064451486, 5414.715043496806, 0.01600000075995922, -0.01600000075995922, 0.9920000471174717, 0.0, 0.0, 0.0, 0.0, 0.0, 1.6670471233272865E9, 0.0, 2022-10-29 14:38:43.327
87.0, -2908.817517586518, -2425.717810760252, 187.50362417846918, 5250.668071840424, 0.01600000075995922, -0.01600000075995922, 0.9920000471174717, 0.0, 0.0, 0.0, 0.0, 0.0, 1.667047123328044E9, 0.0, 2022-10-29 14:38:43.328
87.0, -2929.213061994873, -2498.8384647439234, 351.30376243777573, 5018.201500444673, 0.01600000075995922, -0.01600000075995922, 0.9920000471174717, 0.0, 0.0, 0.0, 0.0, 0.0, 1.667047123328044E9, 0.0, 2022-10-29 14:38:43.328
88.0, -2941.06854485441, -2540.3363946522586, 302.26993411872536, 5252.240699771792, 0.01600000075995922, -0.01600000075995922, 0.9920000471174717, 0.0, 0.0, 0.0, 0.0, 0.0, 1.667047123341696E9, 0.0, 2022-10-29 14:38:43.341
88.0, -2794.821627037134, -2341.297049060464, 162.90256226994097, 5317.758137145545, 0.01600000075995922, -0.01600000075995922, 0.9920000471174717, 0.0, 0.0, 0.0, 0.0, 0.0, 1.667047123341696E9, 0.0, 2022-10-29 14:38:43.341
89.0, -2931.7748934645206, -2445.4214736768045, 186.77434368710965, 5127.782439096365, 0.01600000075995922, -0.01600000075995922, 0.9920000471174717, 0.0, 0.0, 0.0, 0.0, 0.0, 1.6670471233574371E9, 0.0, 2022-10-29 14:38:43.357
89.0, -2983.9745470960625, -2557.3211503010243, 320.24763320572674, 5026.339522748254, 0.01600000075995922, -0.01600000075995922, 0.9920000471174717, 0.0, 0.0, 0.0, 0.0, 0.0, 1.6670471233574371E9, 0.0, 2022-10-29 14:38:43.357
90.0, -3009.79107649019, -2603.9577027484775, 260.1287414180115, 4802.25780705316, 0.01600000075995922, -0.01600000075995922, 0.9920000471174717, 0.0, 0.0, 0.0, 0.0, 0.0, 1.667047123358238E9, 0.0, 2022-10-29 14:38:43.358
90.0, -2880.261511474848, -2429.1117699700408, 115.22631763480604, 4836.891150592826, 0.01600000075995922, -0.01600000075995922, 0.9920000471174717, 0.0, 0.0, 0.0, 0.0, 0.0, 1.667047123358238E9, 0.0, 2022-10-29 14:38:43.358
91.0, -2994.1994335749187, -2516.3954250859097, 135.11884549912065, 4632.744971611537, 0.01600000075995922, 0.0, 0.9920000471174717, 0.0, 0.0, 0.0, 0.0, 0.0, 1.6670471233716333E9, 0.0, 2022-10-29 14:38:43.371
91.0, -3022.5347855892032, -2593.7683453192003, 302.9169368110597, 4488.678415468428, 0.01600000075995922, 0.0, 0.9920000471174717, 0.0, 0.0, 0.0, 0.0, 0.0, 1.6670471233716333E9, 0.0, 2022-10-29 14:38:43.371
92.0, -2979.1276367534883, -2597.9757327693515, 265.091588659212, 4280.3491583867, 0.0, 0.0, 0.9920000471174717, 0.0, 0.0, 0.0, 0.0, 0.0, 1.6670471233873765E9, 0.0, 2022-10-29 14:38:43.387
92.0, -2906.840980459936, -2479.448953423649, 87.18454776704311, 4354.247711561155, 0.0, 0.0, 0.9920000471174717, 0.0, 0.0, 0.0, 0.0, 0.0, 1.6670471233873765E9, 0.0, 2022-10-29 14:38:43.387
93.0, -2971.3710842453875, -2509.927268112544, 192.55622901860625, 4185.60440285923, 0.0, 0.0, 0.9920000471174717, 0.0, 0.0, 0.0, 0.0, 0.0, 1.667047123388192E9, 0.0, 2022-10-29 14:38:43.388
93.0, -3022.3290910916403, -2598.8527393089607, 306.881230764091, 4037.7530679609627, 0.0, 0.0, 0.9920000471174717, 0.0, 0.0, 0.0, 0.0, 0.0, 1.667047123388192E9, 0.0, 2022-10-29 14:38:43.388
94.0, -2980.1635890412144, -2587.1898612971418, 276.3150284262374, 3822.609713159967, 0.0, 0.0, 0.9920000471174717, 0.0, 0.0, 0.0, 0.0, 0.0, 1.6670471234180307E9, 0.0, 2022-10-29 14:38:43.418
94.0, -2892.0496761351824, -2442.180850365199, 159.72364730760455, 3933.084487901069, 0.0, 0.0, 0.9920000471174717, 0.0, 0.0, 0.0, 0.0, 0.0, 1.6670471234180307E9, 0.0, 2022-10-29 14:38:43.418
95.0, -2951.4112381818704, -2480.30726046348, 205.96003045979887, 3709.240255853161, 0.0, 0.0, 0.9920000471174717, 0.0, 0.0, 0.0, 0.0, 0.0, 1.6670471234188125E9, 0.0, 2022-10-29 14:38:43.418
95.0, -2981.1901915790513, -2567.0748093854636, 342.44767934270203, 3602.0304137733765, 0.0, 0.0, 0.9920000471174717, 0.0, 0.0, 0.0, 0.0, 0.0, 1.6670471234188125E9, 0.0, 2022-10-29 14:38:43.418
96.0, -2954.8818653407507, -2549.74972284073, 286.9961826996878, 3820.5527681843378, 0.0, 0.0, 0.9920000471174717, 0.0, 0.0, 0.0, 0.0, 0.0, 1.6670471234195828E9, 0.0, 2022-10-29 14:38:43.419
96.0, -2901.9117923183367, -2449.4736552787945, 120.85486706811935, 3901.018585680984, 0.0, 0.0, 0.9920000471174717, 0.0, 0.0, 0.0, 0.0, 0.0, 1.6670471234195828E9, 0.0, 2022-10-29 14:38:43.419
97.0, -2967.193615994882, -2495.790446280036, 169.70170038938522, 3753.0157848345116, 0.0, 0.0, 0.9920000471174717, 0.0, 0.0, 0.0, 0.0, 0.0, 1.667047123448056E9, 0.0, 2022-10-29 14:38:43.448
97.0, -3000.3758783517405, -2559.834363071248, 338.80875668581575, 3615.2958389162086, 0.0, 0.0, 0.9920000471174717, 0.0, 0.0, 0.0, 0.0, 0.0, 1.667047123448056E9, 0.0, 2022-10-29 14:38:43.448
98.0, -2976.6780022825114, -2584.906652374193, 268.5696956180036, 3845.2809866913594, 0.0, 0.0, 0.9920000471174717, 0.0, 0.0, 0.0, 0.0, 0.0, 1.667047123448696E9, 0.0, 2022-10-29 14:38:43.448
98.0, -2949.9620269490406, -2500.3194651263766, 89.31255084183067, 3933.2004247996956, 0.0, 0.0, 0.9920000471174717, 0.0, 0.0, 0.0, 0.0, 0.0, 1.667047123448696E9, 0.0, 2022-10-29 14:38:43.448
99.0, -2993.930160778109, -2520.9805424315855, 164.86600974667817, 3774.5688282791525, 0.0, 0.0, 0.9920000471174717, 0.0, 0.0, 0.0, 0.0, 0.0, 1.6670471234494574E9, 0.0, 2022-10-29 14:38:43.449
99.0, -3009.718148441054, -2580.6674757744186, 319.09948391932994, 3594.7787477592938, 0.0, 0.0, 0.9920000471174717, 0.0, 0.0, 0.0, 0.0, 0.0, 1.6670471234494574E9, 0.0, 2022-10-29 14:38:43.449
100.0, -2957.3576791114174, -2549.9498074883595, 281.59576716367155, 3826.8619794095866, 0.0, 0.0, 0.9920000471174717, 0.0, 0.0, 0.0, 0.0, 0.0, 1.6670471234623463E9, 0.0, 2022-10-29 14:38:43.462
100.0, -2935.6232505189255, -2479.3236667751335, 98.91287402808666, 3953.33604616113, 0.0, 0.0, 0.9920000471174717, 0.0, 0.0, 0.0, 0.0, 0.0, 1.6670471234623463E9, 0.0, 2022-10-29 14:38:43.462
0.0, -54.4342438550666, -62.15152741363272, 175.14886467484757, -1080.8516566441394, 0.0, 0.0, 0.9920000471174717, 0.0, 0.0, 0.0, 0.0, 0.0, 1.667047123463032E9, 0.0, 2022-10-29 14:38:43.463
1.0, -63.77090409444645, -124.49004982504994, 306.89432041393593, -1256.7036225106567, 0.0, 0.0, 0.9920000471174717, 0.0, 0.0, 0.0, 0.0, 0.0, 1.6670471234766364E9, 0.0, 2022-10-29 14:38:43.476
1.0, 15.950673311017454, -79.61686020670459, 295.17347395280376, -1038.8656697915867, 0.0, 0.0, 0.9920000471174717, 0.0, 0.0, 0.0, 0.0, 0.0, 1.6670471234766364E9, 0.0, 2022-10-29 14:38:43.476
2.0, 22.74420158052817, -17.27085799537599, 98.70156968059018, -923.3121109106578, 0.0, 0.0, 0.9920000471174717, 0.0, 0.0, 0.0, 0.0, 0.0, 1.667047123492371E9, 0.0, 2022-10-29 14:38:43.492
2.0, -55.95638313703239, -87.41829151427373, 156.3109885980375, -1087.2543653682806, 0.0, 0.0, 0.9920000471174717, 0.0, 0.0, 0.0, 0.0, 0.0, 1.667047123492371E9, 0.0, 2022-10-29 14:38:43.492
3.0, -34.92318578623235, -90.41956122871488, 337.3969444525428, -1249.5828529950231, 0.0, 0.0, 0.9920000471174717, 0.0, 0.0, 0.0, 0.0, 0.0, 1.6670471234930422E9, 0.0, 2022-10-29 14:38:43.493
3.0, 37.24005380878225, -38.91926888888702, 322.3662865306251, -1485.4489934504963, 0.0, 0.0, 0.9920000471174717, 0.0, 0.0, 0.0, 0.0, 0.0, 1.6670471234930422E9, 0.0, 2022-10-29 14:38:43.493
4.0, 52.25388218089938, 29.122600954957306, 144.1263945423998, -1377.4537723800167, 0.0, 0.0, 0.9920000471174717, 0.0, 0.0, 0.0, 0.0, 0.0, 1.6670471235066557E9, 0.0, 2022-10-29 14:38:43.506
4.0, -56.709972978103906, -80.31996139837429, 156.3109885980375, -1549.2759960442781, 0.0, 0.0, 0.9920000471174717, 0.0, 0.0, 0.0, 0.0, 0.0, 1.6670471235066557E9, 0.0, 2022-10-29 14:38:43.506
5.0, -13.416891091037542, -62.16648701345548, 342.0306804976426, -1739.9417056352831, 0.0, 0.0, 0.9920000471174717, 0.0, 0.0, 0.0, 0.0, 0.0, 1.6670471235222945E9, 0.0, 2022-10-29 14:38:43.522
5.0, 48.38308572676033, -46.40841855015606, 315.62698681047186, -1497.622367806267, 0.0, 0.0, 0.9920000471174717, 0.0, 0.0, 0.0, 0.0, 0.0, 1.6670471235222945E9, 0.0, 2022-10-29 14:38:43.522
6.0, 56.87078867619857, 20.515221206936985, 151.89042685041204, -1397.9521640371531, 0.0, 0.0, 0.9920000471174717, 0.0, 0.0, 0.0, 0.0, 0.0, 1.6670471235231264E9, 0.0, 2022-10-29 14:38:43.523
6.0, -102.9033472808078, -111.94642537366599, 151.69408210273832, -1597.868516168557, 0.0, 0.0, 0.9920000471174717, 0.0, 0.0, 0.0, 0.0, 0.0, 1.6670471235231264E9, 0.0, 2022-10-29 14:38:43.523
7.0, -31.620854125358164, -86.20843387860805, 324.28298525791615, -1786.0060533895157, 0.0, 0.0, 0.9920000471174717, 0.0, 0.0, 0.0, 0.0, 0.0, 1.667047123536706E9, 0.0, 2022-10-29 14:38:43.536
7.0, 51.73216613708064, -27.419076525140554, 342.20271589560434, -2001.4598198868334, 0.0, 0.0, 0.9920000471174717, 0.0, 0.0, 0.0, 0.0, 0.0, 1.667047123536706E9, 0.0, 2022-10-29 14:38:43.536
