%OpenBCI Raw EEG Data
%Number of channels = 4
%Sample Rate = 200 Hz
%Board = OpenBCI_GUI$BoardGanglionBLE
Sample Index, EXG Channel 0, EXG Channel 1, EXG Channel 2, EXG Channel 3, Accel Channel 0, Accel Channel 1, Accel Channel 2, Other, Other, Other, Other, Other, Timestamp, Other, Timestamp (Formatted)
0.0, 13261.341172080487, 13539.445742635522, 13090.79051440116, 10248.651673124637, 0.0, 0.0, 0.0, 0.0, 0.0, 0.0, 0.0, 0.0, 1.667052560872038E9, 0.0, 2022-10-29 16:09:20.872
1.0, 13090.581080003642, 13729.565426832996, 13126.96469672257, 10204.958421942312, 0.0, 0.01600000075995922, 0.0, 0.0, 0.0, 0.0, 0.0, 0.0, 1.6670525608854048E9, 0.0, 2022-10-29 16:09:20.885
1.0, 13082.906805294566, 13642.111606269144, 13211.450906671584, 10079.567056227941, 0.0, 0.01600000075995922, 0.0, 0.0, 0.0, 0.0, 0.0, 0.0, 1.6670525608854048E9, 0.0, 2022-10-29 16:09:20.885
2.0, 13111.004673661664, 13730.107712326571, 13117.173638638575, 9933.91478250362, 0.0, 0.01600000075995922, 0.0, 0.0, 0.0, 0.0, 0.0, 0.0, 1.667052560902128E9, 0.0, 2022-10-29 16:09:20.902
2.0, 13234.4999100985, 13513.19912474649, 13049.838609886356, 9749.490965938661, 0.0, 0.01600000075995922, 0.0, 0.0, 0.0, 0.0, 0.0, 0.0, 1.667052560902128E9, 0.0, 2022-10-29 16:09:20.902
3.0, 13297.578932701144, 13438.66291862959, 12843.732723328285, 9910.431950681843, 0.0, 0.01600000075995922, 0.0, 0.0, 0.0, 0.0, 0.0, 0.0, 1.667052560902854E9, 0.0, 2022-10-29 16:09:20.902
3.0, 13506.27469997853, 13476.665912029333, 12661.147067591548, 10060.310311356094, 0.0, 0.01600000075995922, 0.0, 0.0, 0.0, 0.0, 0.0, 0.0, 1.667052560902854E9, 0.0, 2022-10-29 16:09:20.902
4.0, 13565.828866872936, 13693.744665057398, 12585.838572133798, 9840.881031205878, 0.0, 0.01600000075995922, 0.0, 0.0, 0.0, 0.0, 0.0, 0.0, 1.6670525609152155E9, 0.0, 2022-10-29 16:09:20.915
4.0, 13660.212722054683, 13490.583949714433, 12480.652015930042, 10081.450095855631, 0.0, 0.01600000075995922, 0.0, 0.0, 0.0, 0.0, 0.0, 0.0, 1.6670525609152155E9, 0.0, 2022-10-29 16:09:20.915
5.0, 13626.448905254714, 13277.402172440197, 12700.66098057339, 10312.734858865384, 0.0, 0.01600000075995922, 0.0, 0.0, 0.0, 0.0, 0.0, 0.0, 1.6670525609309492E9, 0.0, 2022-10-29 16:09:20.930
5.0, 13519.865496417508, 13509.939801935107, 12680.465520812664, 10068.870942354668, 0.0, 0.01600000075995922, 0.0, 0.0, 0.0, 0.0, 0.0, 0.0, 1.6670525609309492E9, 0.0, 2022-10-29 16:09:20.930
6.0, 13392.000186882447, 13508.026843107771, 12901.80401989026, 10301.459060498979, 0.0, 0.01600000075995922, 0.0, 0.0, 0.0, 0.0, 0.0, 0.0, 1.667052560931608E9, 0.0, 2022-10-29 16:09:20.931
6.0, 13312.805935370736, 13614.16520385025, 12665.575109139085, 10411.333581297193, 0.0, 0.01600000075995922, 0.0, 0.0, 0.0, 0.0, 0.0, 0.0, 1.667052560931608E9, 0.0, 2022-10-29 16:09:20.931
7.0, 13102.518840662204, 13774.234791903757, 12664.471838652156, 10296.271819260437, 0.0, 0.01600000075995922, 0.0, 0.0, 0.0, 0.0, 0.0, 0.0, 1.6670525609451532E9, 0.0, 2022-10-29 16:09:20.945
7.0, 13231.173269087914, 13717.41449187696, 12856.682126924861, 10312.377698419616, 0.0, 0.01600000075995922, 0.0, 0.0, 0.0, 0.0, 0.0, 0.0, 1.6670525609451532E9, 0.0, 2022-10-29 16:09:20.945
8.0, 12995.748436827213, 13591.673445516732, 12995.615670378786, 10410.183562060818, 0.0, 0.01600000075995922, 0.0, 0.0, 0.0, 0.0, 0.0, 0.0, 1.6670525609610069E9, 0.0, 2022-10-29 16:09:20.961
8.0, 12849.46412001038, 13620.197662478779, 13168.477586230729, 10442.31304258015, 0.0, 0.01600000075995922, 0.0, 0.0, 0.0, 0.0, 0.0, 0.0, 1.6670525609610069E9, 0.0, 2022-10-29 16:09:20.961
9.0, 12731.268321810756, 13380.739348115865, 13252.900217880495, 10402.14651705604, 0.0, 0.01600000075995922, 0.0, 0.0, 0.0, 0.0, 0.0, 0.0, 1.6670525609616613E9, 0.0, 2022-10-29 16:09:20.961
9.0, 12737.83371618297, 13201.65797863761, 13361.512522443663, 10367.275689869188, 0.0, 0.01600000075995922, 0.0, 0.0, 0.0, 0.0, 0.0, 0.0, 1.6670525609616613E9, 0.0, 2022-10-29 16:09:20.961
10.0, 12554.464551405516, 13152.416585871018, 13536.487481770571, 10475.156843991019, 0.0, 0.01600000075995922, 0.9920000471174717, 0.0, 0.0, 0.0, 0.0, 0.0, 1.6670525609752119E9, 0.0, 2022-10-29 16:09:20.975
10.0, 12373.930230794474, 13114.118140374776, 13672.844234155025, 10495.13912945427, 0.0, 0.01600000075995922, 0.9920000471174717, 0.0, 0.0, 0.0, 0.0, 0.0, 1.6670525609752119E9, 0.0, 2022-10-29 16:09:20.975
11.0, 12319.39874954056, 12932.646974824835, 13837.252106157131, 10498.525608864147, 0.0, 0.03200000151991844, 0.9920000471174717, 0.0, 0.0, 0.0, 0.0, 0.0, 1.6670525609908628E9, 0.0, 2022-10-29 16:09:20.990
11.0, 12232.58445186913, 13171.20958314836, 13844.445803721901, 10357.587479033973, 0.0, 0.03200000151991844, 0.9920000471174717, 0.0, 0.0, 0.0, 0.0, 0.0, 1.6670525609908628E9, 0.0, 2022-10-29 16:09:20.990
12.0, 12102.082512865309, 13172.069760138169, 14062.08554174332, 10532.37170346314, 0.0, 0.03200000151991844, 0.9920000471174717, 0.0, 0.0, 0.0, 0.0, 0.0, 1.66705256099159E9, 0.0, 2022-10-29 16:09:20.991
12.0, 11871.044583252631, 13114.86986026587, 14157.707303810399, 10513.442199837416, 0.0, 0.03200000151991844, 0.9920000471174717, 0.0, 0.0, 0.0, 0.0, 0.0, 1.66705256099159E9, 0.0, 2022-10-29 16:09:20.991
13.0, 11847.786145428196, 12943.369267997798, 14349.917592083104, 10552.092195929494, 0.0, 0.03200000151991844, 0.9920000471174717, 0.0, 0.0, 0.0, 0.0, 0.0, 1.6670525610051415E9, 0.0, 2022-10-29 16:09:21.005
13.0, 11792.970431777649, 12757.219487603288, 14375.014190735761, 10452.37898331089, 0.0, 0.03200000151991844, 0.9920000471174717, 0.0, 0.0, 0.0, 0.0, 0.0, 1.6670525610051415E9, 0.0, 2022-10-29 16:09:21.005
14.0, 11562.98341405252, 12627.308452792466, 14511.213867322076, 10516.637944349553, 0.0, 0.03200000151991844, 0.9920000471174717, 0.0, 0.0, 0.0, 0.0, 0.0, 1.667052561020896E9, 0.0, 2022-10-29 16:09:21.020
14.0, 11421.59836617764, 12652.343343095854, 14690.059623103123, 10572.568148186896, 0.0, 0.03200000151991844, 0.9920000471174717, 0.0, 0.0, 0.0, 0.0, 0.0, 1.667052561020896E9, 0.0, 2022-10-29 16:09:21.020
15.0, 11378.641875286587, 12487.159441852942, 14852.47038852889, 10573.991180120036, 0.0, 0.03200000151991844, 0.9920000471174717, 0.0, 0.0, 0.0, 0.0, 0.0, 1.667052561021604E9, 0.0, 2022-10-29 16:09:21.021
15.0, 11343.221282806247, 12311.264467136934, 14908.53335881466, 10499.604570001364, 0.0, 0.03200000151991844, 0.9920000471174717, 0.0, 0.0, 0.0, 0.0, 0.0, 1.667052561021604E9, 0.0, 2022-10-29 16:09:21.021
16.0, 11574.35831976775, 12165.45885751443, 15021.317521778401, 10545.721276354976, 0.0, 0.03200000151991844, 0.9920000471174717, 0.0, 0.0, 0.0, 0.0, 0.0, 1.667052561035133E9, 0.0, 2022-10-29 16:09:21.035
16.0, 11427.067969862837, 12189.887884024996, 15195.417344515678, 10606.341314736754, 0.0, 0.03200000151991844, 0.9920000471174717, 0.0, 0.0, 0.0, 0.0, 0.0, 1.667052561035133E9, 0.0, 2022-10-29 16:09:21.035
17.0, 11434.265407327563, 12055.584336716216, 15407.067632758059, 10658.137059173081, 0.0, 0.03200000151991844, 0.9920000471174717, 0.0, 0.0, 0.0, 0.0, 0.0, 1.6670525610508492E9, 0.0, 2022-10-29 16:09:21.050
17.0, 11354.13431087695, 11849.246576360893, 15407.488371503074, 10541.755112451967, 0.0, 0.03200000151991844, 0.9920000471174717, 0.0, 0.0, 0.0, 0.0, 0.0, 1.6670525610508492E9, 0.0, 2022-10-29 16:09:21.050
18.0, 11118.25695072161, 11716.713871681131, 15544.394889181014, 10586.862045817543, 0.0, 0.03200000151991844, 0.9920000471174717, 0.0, 0.0, 0.0, 0.0, 0.0, 1.6670525610516462E9, 0.0, 2022-10-29 16:09:21.051
18.0, 10957.061652781442, 11709.359358418267, 15699.320244845469, 10633.580876064021, 0.0, 0.03200000151991844, 0.9920000471174717, 0.0, 0.0, 0.0, 0.0, 0.0, 1.6670525610516462E9, 0.0, 2022-10-29 16:09:21.051
19.0, 10946.126185311005, 11591.466492115054, 15905.222306855954, 10667.671934110112, 0.0, 0.03200000151991844, 0.9920000471174717, 0.0, 0.0, 0.0, 0.0, 0.0, 1.6670525610652096E9, 0.0, 2022-10-29 16:09:21.065
19.0, 10893.012126140296, 11369.712864142377, 15924.821252573747, 10585.304377485998, 0.0, 0.03200000151991844, 0.9920000471174717, 0.0, 0.0, 0.0, 0.0, 0.0, 1.6670525610652096E9, 0.0, 2022-10-29 16:09:21.065
20.0, 11114.646077314392, 11211.913395361975, 16035.888801457826, 10602.694912279956, 0.0, 0.03200000151991844, 0.9920000471174717, 0.0, 0.0, 0.0, 0.0, 0.0, 1.6670525610808742E9, 0.0, 2022-10-29 16:09:21.080
20.0, 10948.899321128149, 11198.582521969918, 16192.76638489915, 10673.805370037444, 0.0, 0.03200000151991844, 0.9920000471174717, 0.0, 0.0, 0.0, 0.0, 0.0, 1.6670525610808742E9, 0.0, 2022-10-29 16:09:21.080
21.0, 11029.832626119256, 11167.63858973654, 15993.02954796562, 10773.307278308552, 0.0, 0.01600000075995922, 0.9920000471174717, 0.0, 0.0, 0.0, 0.0, 0.0, 1.6670525610816412E9, 0.0, 2022-10-29 16:09:21.081
21.0, 10876.33217233792, 11360.421082702465, 15931.167862798553, 10615.479760278482, 0.0, 0.01600000075995922, 0.9920000471174717, 0.0, 0.0, 0.0, 0.0, 0.0, 1.6670525610816412E9, 0.0, 2022-10-29 16:09:21.081
22.0, 10653.626739826519, 11244.246700428892, 16071.593626334798, 10655.160098808352, 0.0, 0.01600000075995922, 0.9920000471174717, 0.0, 0.0, 0.0, 0.0, 0.0, 1.667052561095164E9, 0.0, 2022-10-29 16:09:21.095
22.0, 10451.341161073186, 11217.108116400428, 16183.581190607976, 10610.010156593286, 0.0, 0.01600000075995922, 0.9920000471174717, 0.0, 0.0, 0.0, 0.0, 0.0, 1.667052561095164E9, 0.0, 2022-10-29 16:09:21.095
23.0, 10590.523407874163, 11239.680282582995, 16048.118274312932, 10833.515927695204, 0.0, 0.01600000075995922, 0.9920000471174717, 0.0, 0.0, 0.0, 0.0, 0.0, 1.667052561110849E9, 0.0, 2022-10-29 16:09:21.110
23.0, 10417.328640926164, 11388.560089969076, 15949.949640376028, 10663.679590907414, 0.0, 0.01600000075995922, 0.9920000471174717, 0.0, 0.0, 0.0, 0.0, 0.0, 1.667052561110849E9, 0.0, 2022-10-29 16:09:21.110
24.0, 10661.514188833069, 11239.08563849004, 16073.444876812864, 10649.952288120054, 0.0, 0.01600000075995922, 0.9920000471174717, 0.0, 0.0, 0.0, 0.0, 0.0, 1.6670525611116085E9, 0.0, 2022-10-29 16:09:21.111
24.0, 10441.486524689943, 11177.581113768741, 16174.489493815694, 10613.235820305068, 0.0, 0.01600000075995922, 0.9920000471174717, 0.0, 0.0, 0.0, 0.0, 0.0, 1.6670525611116085E9, 0.0, 2022-10-29 16:09:21.111
25.0, 10580.620152791496, 11235.080205637496, 16039.374388216529, 10839.711071971804, 0.0, 0.01600000075995922, 0.9920000471174717, 0.0, 0.0, 0.0, 0.0, 0.0, 1.6670525611251676E9, 0.0, 2022-10-29 16:09:21.125
25.0, 10450.01910643885, 11443.454341518693, 16009.417789571453, 10707.169017542154, 0.0, 0.01600000075995922, 0.9920000471174717, 0.0, 0.0, 0.0, 0.0, 0.0, 1.6670525611251676E9, 0.0, 2022-10-29 16:09:21.125
26.0, 10628.21037972765, 11234.769793941174, 16064.600013417657, 10637.934119612444, 0.0, 0.01600000075995922, 0.9920000471174717, 0.0, 0.0, 0.0, 0.0, 0.0, 1.6670525611408396E9, 0.0, 2022-10-29 16:09:21.140
26.0, 10452.713704356924, 11190.289293818176, 16194.12022868311, 10656.917851787526, 0.0, 0.01600000075995922, 0.9920000471174717, 0.0, 0.0, 0.0, 0.0, 0.0, 1.6670525611408396E9, 0.0, 2022-10-29 16:09:21.140
27.0, 10653.518282727804, 11294.211763836909, 16108.749532394577, 10882.824638660997, 0.0, 0.01600000075995922, 0.9920000471174717, 0.0, 0.0, 0.0, 0.0, 0.0, 1.6670525611415753E9, 0.0, 2022-10-29 16:09:21.141
27.0, 10452.180768613238, 11429.493294984102, 16009.94137556525, 10711.585839389823, 0.0, 0.01600000075995922, 0.9920000471174717, 0.0, 0.0, 0.0, 0.0, 0.0, 1.6670525611415753E9, 0.0, 2022-10-29 16:09:21.141
28.0, 10648.162745991256, 11237.941229103599, 16072.730555921327, 10649.340814477298, 0.0, 0.01600000075995922, 0.9920000471174717, 0.0, 0.0, 0.0, 0.0, 0.0, 1.6670525611551795E9, 0.0, 2022-10-29 16:09:21.155
28.0, 10455.238136827014, 11209.246846693568, 16210.766523385886, 10657.0973669854, 0.0, 0.01600000075995922, 0.9920000471174717, 0.0, 0.0, 0.0, 0.0, 0.0, 1.6670525611551795E9, 0.0, 2022-10-29 16:09:21.155
29.0, 10246.207648503594, 11370.797435129527, 16193.974372584838, 10456.354496963788, 0.0, 0.01600000075995922, 0.9920000471174717, 0.0, 0.0, 0.0, 0.0, 0.0, 1.6670525611708548E9, 0.0, 2022-10-29 16:09:21.170
29.0, 10431.555220357608, 11408.430178433657, 15985.785361751448, 10673.812849837355, 0.0, 0.01600000075995922, 0.9920000471174717, 0.0, 0.0, 0.0, 0.0, 0.0, 1.6670525611708548E9, 0.0, 2022-10-29 16:09:21.170
30.0, 10636.595235428307, 11221.552987497766, 16070.378158849198, 10645.297982625198, 0.0, 0.01600000075995922, 1.008000047877431, 0.0, 0.0, 0.0, 0.0, 0.0, 1.667052561171625E9, 0.0, 2022-10-29 16:09:21.171
30.0, 10461.25563585572, 11204.994580443949, 16202.673379881773, 10691.478267278057, 0.0, 0.01600000075995922, 1.008000047877431, 0.0, 0.0, 0.0, 0.0, 0.0, 1.667052561171625E9, 0.0, 2022-10-29 16:09:21.171
31.0, 10285.772050134838, 11426.043237274978, 16235.623768441379, 10506.054027474951, 0.0, 0.01600000075995922, 1.008000047877431, 0.0, 0.0, 0.0, 0.0, 0.0, 1.6670525611851604E9, 0.0, 2022-10-29 16:09:21.185
31.0, 10442.40841002902, 11415.29102490237, 16478.782713810448, 10691.412819028832, 0.0, 0.01600000075995922, 1.008000047877431, 0.0, 0.0, 0.0, 0.0, 0.0, 1.6670525611851604E9, 0.0, 2022-10-29 16:09:21.185
32.0, 10674.809533175547, 11253.276688871905, 16585.313764048275, 10696.6823380664, 0.0, 0.01600000075995922, 1.008000047877431, 0.0, 0.0, 0.0, 0.0, 0.0, 1.667052561200906E9, 0.0, 2022-10-29 16:09:21.200
32.0, 10452.003123365343, 11203.556588910986, 16684.069562278222, 10684.72400795808, 0.0, 0.01600000075995922, 1.008000047877431, 0.0, 0.0, 0.0, 0.0, 0.0, 1.667052561200906E9, 0.0, 2022-10-29 16:09:21.200
33.0, 10327.494374040514, 10967.161252611782, 16755.391324383207, 10545.132242111955, 0.0, 0.01600000075995922, 1.008000047877431, 0.0, 0.0, 0.0, 0.0, 0.0, 1.6670525612016513E9, 0.0, 2022-10-29 16:09:21.201
33.0, 10422.519622064661, 10884.846054587048, 16965.022066649515, 10708.679937124252, 0.0, 0.01600000075995922, 1.008000047877431, 0.0, 0.0, 0.0, 0.0, 0.0, 1.6670525612016513E9, 0.0, 2022-10-29 16:09:21.201
34.0, 10182.887402353808, 10776.757336017676, 17071.19034659164, 10701.029971764889, 0.0, 0.01600000075995922, 1.008000047877431, 0.0, 0.0, 0.0, 0.0, 0.0, 1.6670525612315216E9, 0.0, 2022-10-29 16:09:21.231
34.0, 9978.46260082582, 10718.9814915522, 17183.48832256114, 10731.080067908857, 0.0, 0.01600000075995922, 1.008000047877431, 0.0, 0.0, 0.0, 0.0, 0.0, 1.6670525612315216E9, 0.0, 2022-10-29 16:09:21.231
35.0, 9884.374197740573, 10517.965608833823, 17287.358433980495, 10583.91500465246, 0.0, 0.01600000075995922, 1.008000047877431, 0.0, 0.0, 0.0, 0.0, 0.0, 1.667052561232223E9, 0.0, 2022-10-29 16:09:21.232
35.0, 9947.834690138698, 10405.6526732645, 17452.970553768333, 10708.866932122037, 0.0, 0.01600000075995922, 1.008000047877431, 0.0, 0.0, 0.0, 0.0, 0.0, 1.667052561232223E9, 0.0, 2022-10-29 16:09:21.232
36.0, 10175.108410445973, 10264.836090182886, 17556.46480524214, 10710.935096797533, 0.0, 0.01600000075995922, 1.008000047877431, 0.0, 0.0, 0.0, 0.0, 0.0, 1.6670525612329588E9, 0.0, 2022-10-29 16:09:21.232
36.0, 9978.67951502325, 10191.83137309784, 17680.726721169893, 10747.339282966219, 0.0, 0.01600000075995922, 1.008000047877431, 0.0, 0.0, 0.0, 0.0, 0.0, 1.6670525612329588E9, 0.0, 2022-10-29 16:09:21.232
37.0, 9882.975475157145, 10006.006963999476, 17789.077232736163, 10609.056482104585, 0.0, 0.01600000075995922, 1.008000047877431, 0.0, 0.0, 0.0, 0.0, 0.0, 1.6670525612452302E9, 0.0, 2022-10-29 16:09:21.245
37.0, 9947.311104144901, 9936.867433518637, 17943.944619951304, 10727.489763951395, 0.0, 0.01600000075995922, 1.008000047877431, 0.0, 0.0, 0.0, 0.0, 0.0, 1.6670525612452302E9, 0.0, 2022-10-29 16:09:21.245
38.0, 9720.551620081533, 9802.191766164266, 18081.812291917857, 10733.600760478992, 0.0, 0.01600000075995922, 1.008000047877431, 0.0, 0.0, 0.0, 0.0, 0.0, 1.667052561260856E9, 0.0, 2022-10-29 16:09:21.260
38.0, 9522.316352980211, 9755.99091206165, 18198.64676653361, 10801.633280572947, 0.0, 0.01600000075995922, 1.008000047877431, 0.0, 0.0, 0.0, 0.0, 0.0, 1.667052561260856E9, 0.0, 2022-10-29 16:09:21.260
39.0, 9421.320354676805, 9533.855814293493, 18296.274984926917, 10613.751926498953, 0.0, 0.01600000075995922, 1.008000047877431, 0.0, 0.0, 0.0, 0.0, 0.0, 1.66705256126157E9, 0.0, 2022-10-29 16:09:21.261
39.0, 9415.44123194646, 9397.772074605804, 18400.28347264463, 10687.478444275446, 0.0, 0.01600000075995922, 1.008000047877431, 0.0, 0.0, 0.0, 0.0, 0.0, 1.66705256126157E9, 0.0, 2022-10-29 16:09:21.261
40.0, 9256.553452278953, 9357.061393638141, 18600.850567368325, 10782.969309844077, 0.0, 0.01600000075995922, 1.008000047877431, 0.0, 0.0, 0.0, 0.0, 0.0, 1.667052561275175E9, 0.0, 2022-10-29 16:09:21.275
40.0, 9021.109920518473, 9258.116730460431, 18687.75462263869, 10841.091095055453, 0.0, 0.01600000075995922, 1.008000047877431, 0.0, 0.0, 0.0, 0.0, 0.0, 1.667052561275175E9, 0.0, 2022-10-29 16:09:21.275
41.0, 8923.835122670978, 9029.799578065518, 18782.59661556501, 10630.1981365541, 0.0, 0.01600000075995922, 1.008000047877431, 0.0, 0.0, 0.0, 0.0, 0.0, 1.6670525612909033E9, 0.0, 2022-10-29 16:09:21.290
41.0, 8939.952221530024, 8904.756023047026, 18907.888873930555, 10682.079898689408, 0.0, 0.01600000075995922, 1.008000047877431, 0.0, 0.0, 0.0, 0.0, 0.0, 1.6670525612909033E9, 0.0, 2022-10-29 16:09:21.290
42.0, 8766.059963240288, 8867.433691439219, 19087.280655105133, 10798.7759970068, 0.0, 0.01600000075995922, 1.008000047877431, 0.0, 0.0, 0.0, 0.0, 0.0, 1.6670525612916255E9, 0.0, 2022-10-29 16:09:21.291
42.0, 8531.592545368243, 8778.740094040055, 19168.84787313873, 10842.723561386112, 0.0, 0.01600000075995922, 1.008000047877431, 0.0, 0.0, 0.0, 0.0, 0.0, 1.6670525612916255E9, 0.0, 2022-10-29 16:09:21.291
43.0, 8485.079409619328, 8613.746927694883, 19322.59703026712, 10685.187755552586, 0.0, 0.01600000075995922, 1.008000047877431, 0.0, 0.0, 0.0, 0.0, 0.0, 1.6670525613052385E9, 0.0, 2022-10-29 16:09:21.305
43.0, 8445.799240384717, 8389.132276256103, 19379.684733140748, 10705.355166063644, 0.0, 0.01600000075995922, 1.008000047877431, 0.0, 0.0, 0.0, 0.0, 0.0, 1.6670525613052385E9, 0.0, 2022-10-29 16:09:21.305
44.0, 8244.265381522477, 8312.903765409254, 19552.13152009761, 10802.435489113443, 0.0, 0.01600000075995922, 1.008000047877431, 0.0, 0.0, 0.0, 0.0, 0.0, 1.667052561320901E9, 0.0, 2022-10-29 16:09:21.320
44.0, 8044.799687335733, 8290.196962828282, 19672.975167465862, 10881.78120657336, 0.0, 0.01600000075995922, 1.008000047877431, 0.0, 0.0, 0.0, 0.0, 0.0, 1.667052561320901E9, 0.0, 2022-10-29 16:09:21.320
45.0, 7996.498879407998, 8126.164950771723, 19831.21220454108, 10731.429748554714, 0.0, 0.01600000075995922, 1.008000047877431, 0.0, 0.0, 0.0, 0.0, 0.0, 1.6670525613216317E9, 0.0, 2022-10-29 16:09:21.321
45.0, 7964.85184598295, 7944.675085722003, 19889.73976889765, 10743.821907057893, 0.0, 0.01600000075995922, 1.008000047877431, 0.0, 0.0, 0.0, 0.0, 0.0, 1.6670525613216317E9, 0.0, 2022-10-29 16:09:21.321
46.0, 7767.409437672235, 7853.184043155983, 20051.015474686865, 10830.54270723043, 0.0, 0.01600000075995922, 1.008000047877431, 0.0, 0.0, 0.0, 0.0, 0.0, 1.6670525613351998E9, 0.0, 2022-10-29 16:09:21.335
46.0, 7552.733570365701, 7803.7668750914745, 20147.198221747298, 10900.553634400945, 0.0, 0.01600000075995922, 1.008000047877431, 0.0, 0.0, 0.0, 0.0, 0.0, 1.6670525613351998E9, 0.0, 2022-10-29 16:09:21.335
47.0, 7547.531369527336, 7668.864943789784, 20354.547625040635, 10779.796004731674, 0.0, 0.01600000075995922, 1.008000047877431, 0.0, 0.0, 0.0, 0.0, 0.0, 1.6670525613508437E9, 0.0, 2022-10-29 16:09:21.350
47.0, 7466.24090409046, 7443.835163455922, 20357.32824065769, 10745.011195243802, 0.0, 0.01600000075995922, 1.008000047877431, 0.0, 0.0, 0.0, 0.0, 0.0, 1.6670525613508437E9, 0.0, 2022-10-29 16:09:21.350
48.0, 7254.478418849409, 7349.580334822647, 20524.92811727198, 10813.021275938023, 0.0, 0.01600000075995922, 1.008000047877431, 0.0, 0.0, 0.0, 0.0, 0.0, 1.6670525613515344E9, 0.0, 2022-10-29 16:09:21.351
48.0, 7053.797257177066, 7304.366814308334, 20634.42116827471, 10901.604546288494, 0.0, 0.01600000075995922, 1.008000047877431, 0.0, 0.0, 0.0, 0.0, 0.0, 1.6670525613515344E9, 0.0, 2022-10-29 16:09:21.351
49.0, 7106.531716502272, 7227.059342324268, 20403.69178040838, 10808.282822694164, 0.0, 0.01600000075995922, 1.008000047877431, 0.0, 0.0, 0.0, 0.0, 0.0, 1.667052561365209E9, 0.0, 2022-10-29 16:09:21.365
49.0, 6955.671632089652, 7429.408499376848, 20357.42547805654, 10745.205670041498, 0.0, 0.01600000075995922, 1.008000047877431, 0.0, 0.0, 0.0, 0.0, 0.0, 1.667052561365209E9, 0.0, 2022-10-29 16:09:21.365
50.0, 6748.498004094232, 7320.3548866189085, 20509.37761325622, 10817.898105480243, 0.0, 0.01600000075995922, 0.9920000471174717, 0.0, 0.0, 0.0, 0.0, 0.0, 1.6670525613809729E9, 0.0, 2022-10-29 16:09:21.380
50.0, 6566.927731195465, 7289.252008637413, 20642.402114780154, 10915.116804828402, 0.0, 0.01600000075995922, 0.9920000471174717, 0.0, 0.0, 0.0, 0.0, 0.0, 1.6670525613809729E9, 0.0, 2022-10-29 16:09:21.380
51.0, 6639.053571790922, 7269.052808976732, 20435.159298635554, 10845.58084495226, 0.0, 0.01600000075995922, 0.9920000471174717, 0.0, 0.0, 0.0, 0.0, 0.0, 1.6670525613815968E9, 0.0, 2022-10-29 16:09:21.381
51.0, 6468.828285407741, 7435.065098059829, 20359.84519332787, 10746.301460728515, 0.0, 0.01600000075995922, 0.9920000471174717, 0.0, 0.0, 0.0, 0.0, 0.0, 1.6670525613815968E9, 0.0, 2022-10-29 16:09:21.381
52.0, 6260.5551268253475, 7322.16686814744, 20514.86030659126, 10815.08944061352, 0.0, 0.01600000075995922, 0.9920000471174717, 0.0, 0.0, 0.0, 0.0, 0.0, 1.667052561395194E9, 0.0, 2022-10-29 16:09:21.395
52.0, 6074.751287176739, 7286.482612720225, 20656.61747451173, 10912.311879861634, 0.0, 0.01600000075995922, 0.9920000471174717, 0.0, 0.0, 0.0, 0.0, 0.0, 1.667052561395194E9, 0.0, 2022-10-29 16:09:21.395
53.0, 6137.389001584612, 7223.783189963084, 20415.52482386818, 10825.17221089406, 0.0, 0.01600000075995922, 0.9920000471174717, 0.0, 0.0, 0.0, 0.0, 0.0, 1.6670525614109187E9, 0.0, 2022-10-29 16:09:21.410
53.0, 5990.328655526973, 7423.248884149827, 20384.891303331126, 10761.874404144008, 0.0, 0.01600000075995922, 0.9920000471174717, 0.0, 0.0, 0.0, 0.0, 0.0, 1.6670525614109187E9, 0.0, 2022-10-29 16:09:21.410
54.0, 6223.208485867828, 7285.031531537417, 20487.18878681911, 10791.385954694357, 0.0, 0.01600000075995922, 0.9920000471174717, 0.0, 0.0, 0.0, 0.0, 0.0, 1.6670525614116776E9, 0.0, 2022-10-29 16:09:21.411
54.0, 6083.091264077928, 7298.547529977281, 20665.750310203526, 10945.323976770509, 0.0, 0.01600000075995922, 0.9920000471174717, 0.0, 0.0, 0.0, 0.0, 0.0, 1.6670525614116776E9, 0.0, 2022-10-29 16:09:21.411
55.0, 6164.024569069035, 7262.577172203455, 20465.598344374914, 10870.234265460167, 0.0, 0.01600000075995922, 0.9920000471174717, 0.0, 0.0, 0.0, 0.0, 0.0, 1.6670525614252028E9, 0.0, 2022-10-29 16:09:21.425
55.0, 5999.3231149204075, 7411.082989593968, 20378.533473406453, 10786.093996257056, 0.0, 0.01600000075995922, 0.9920000471174717, 0.0, 0.0, 0.0, 0.0, 0.0, 1.6670525614252028E9, 0.0, 2022-10-29 16:09:21.425
56.0, 5773.936174140777, 7323.8890920770355, 20520.46641662484, 10828.160390958656, 0.0, 0.01600000075995922, 0.9920000471174717, 0.0, 0.0, 0.0, 0.0, 0.0, 1.6670525614408753E9, 0.0, 2022-10-29 16:09:21.440
56.0, 5599.703584955074, 7297.745321436785, 20661.10535445856, 10923.281006431673, 0.0, 0.01600000075995922, 0.9920000471174717, 0.0, 0.0, 0.0, 0.0, 0.0, 1.6670525614408753E9, 0.0, 2022-10-29 16:09:21.440
57.0, 5731.589286942501, 7332.838672671001, 20508.771749463398, 10898.769702122081, 0.0, 0.01600000075995922, 0.9920000471174717, 0.0, 0.0, 0.0, 0.0, 0.0, 1.6670525614416735E9, 0.0, 2022-10-29 16:09:21.441
57.0, 5488.346193824429, 7386.35103118699, 20382.217274862807, 10759.544446471613, 0.0, 0.01600000075995922, 0.9920000471174717, 0.0, 0.0, 0.0, 0.0, 0.0, 1.6670525614416735E9, 0.0, 2022-10-29 16:09:21.441
58.0, 5294.718483468518, 7329.196010114159, 20521.16951781651, 10828.683976952452, 0.0, 0.01600000075995922, 0.9920000471174717, 0.0, 0.0, 0.0, 0.0, 0.0, 1.6670525614551792E9, 0.0, 2022-10-29 16:09:21.455
58.0, 5083.46462462144, 7287.673770856112, 20629.47702053329, 10903.044407771435, 0.0, 0.01600000075995922, 0.9920000471174717, 0.0, 0.0, 0.0, 0.0, 0.0, 1.6670525614551792E9, 0.0, 2022-10-29 16:09:21.455
59.0, 5237.210041849874, 7358.109176671598, 20490.363961881492, 10901.656904887874, 0.0, 0.01600000075995922, 0.9920000471174717, 0.0, 0.0, 0.0, 0.0, 0.0, 1.6670525614708812E9, 0.0, 2022-10-29 16:09:21.470
59.0, 4997.347818291746, 7418.076602511108, 20373.787540362682, 10785.050564169418, 0.0, 0.01600000075995922, 0.9920000471174717, 0.0, 0.0, 0.0, 0.0, 0.0, 1.6670525614708812E9, 0.0, 2022-10-29 16:09:21.470
60.0, 5237.688749044202, 7280.797964787576, 20481.986585980747, 10808.47729749186, 0.0, 0.01600000075995922, 0.9920000471174717, 0.0, 0.0, 0.0, 0.0, 0.0, 1.667052561471632E9, 0.0, 2022-10-29 16:09:21.471
60.0, 5097.69494395284, 7284.186314147431, 20645.27809784608, 10933.285238813143, 0.0, 0.01600000075995922, 0.9920000471174717, 0.0, 0.0, 0.0, 0.0, 0.0, 1.667052561471632E9, 0.0, 2022-10-29 16:09:21.471
61.0, 5276.3406150862575, 7339.72943833936, 20540.246747490484, 10952.891664330848, 0.0, 0.01600000075995922, 0.9920000471174717, 0.0, 0.0, 0.0, 0.0, 0.0, 1.6670525614852262E9, 0.0, 2022-10-29 16:09:21.485
61.0, 5514.4282561154105, 7395.055648333859, 20375.822045938578, 10781.46587006189, 0.0, 0.01600000075995922, 0.9920000471174717, 0.0, 0.0, 0.0, 0.0, 0.0, 1.6670525614852262E9, 0.0, 2022-10-29 16:09:21.485
62.0, 5711.599521679338, 7250.106475801207, 20451.244608344976, 10784.334373327903, 0.0, 0.01600000075995922, 0.9920000471174717, 0.0, 0.0, 0.0, 0.0, 0.0, 1.6670525615009108E9, 0.0, 2022-10-29 16:09:21.500
62.0, 5603.301368712448, 7297.352631941438, 20666.419752295595, 10950.038120664656, 0.0, 0.01600000075995922, 0.9920000471174717, 0.0, 0.0, 0.0, 0.0, 0.0, 1.6670525615009108E9, 0.0, 2022-10-29 16:09:21.500
63.0, 5800.620360324625, 7395.1902847322635, 20566.81125687575, 10980.400498454925, 0.0, 0.01600000075995922, 0.9920000471174717, 0.0, 0.0, 0.0, 0.0, 0.0, 1.6670525615016649E9, 0.0, 2022-10-29 16:09:21.501
63.0, 5998.5152965299785, 7438.1262061735615, 20381.28603977384, 10804.554142438341, 0.0, 0.01600000075995922, 0.9920000471174717, 0.0, 0.0, 0.0, 0.0, 0.0, 1.6670525615016649E9, 0.0, 2022-10-29 16:09:21.501
64.0, 6194.938582102768, 7251.877318430226, 20447.878698384855, 10783.500375637785, 0.0, 0.01600000075995922, 0.9920000471174717, 0.0, 0.0, 0.0, 0.0, 0.0, 1.6670525615151691E9, 0.0, 2022-10-29 16:09:21.515
64.0, 6095.406754632015, 7293.80159693351, 20672.044561828952, 10986.303930534981, 0.0, 0.01600000075995922, 0.9920000471174717, 0.0, 0.0, 0.0, 0.0, 0.0, 1.6670525615151691E9, 0.0, 2022-10-29 16:09:21.515
65.0, 6289.285038284957, 7389.817918445915, 20572.593142207246, 11000.132210621145, 0.0, 0.01600000075995922, 0.9920000471174717, 0.0, 0.0, 0.0, 0.0, 0.0, 1.667052561530882E9, 0.0, 2022-10-29 16:09:21.530
65.0, 6488.58617687365, 7410.695909948554, 20401.144908538554, 10823.67999081174, 0.0, 0.01600000075995922, 0.9920000471174717, 0.0, 0.0, 0.0, 0.0, 0.0, 1.667052561530882E9, 0.0, 2022-10-29 16:09:21.530
66.0, 6675.689631756861, 7244.937934062444, 20450.0441004592, 10799.563245947473, 0.0, 0.01600000075995922, 0.9920000471174717, 0.0, 0.0, 0.0, 0.0, 0.0, 1.6670525615317752E9, 0.0, 2022-10-29 16:09:21.531
66.0, 6573.513695017435, 7308.381596910767, 20664.022476423997, 10960.229348043911, 0.0, 0.01600000075995922, 0.9920000471174717, 0.0, 0.0, 0.0, 0.0, 0.0, 1.6670525615317752E9, 0.0, 2022-10-29 16:09:21.531
67.0, 6787.568738931324, 7413.497095015366, 20582.847947885748, 11007.582091332879, 0.0, 0.01600000075995922, 0.9920000471174717, 0.0, 0.0, 0.0, 0.0, 0.0, 1.6670525615451567E9, 0.0, 2022-10-29 16:09:21.545
67.0, 6986.024660130031, 7413.287660617847, 20376.906616925728, 10802.695412160363, 0.0, 0.01600000075995922, 0.9920000471174717, 0.0, 0.0, 0.0, 0.0, 0.0, 1.6670525615451567E9, 0.0, 2022-10-29 16:09:21.545
68.0, 7173.737718706019, 7230.65899603162, 20435.57068763068, 10790.015281360596, 0.0, 0.01600000075995922, 0.9920000471174717, 0.0, 0.0, 0.0, 0.0, 0.0, 1.6670525615608861E9, 0.0, 2022-10-29 16:09:21.560
68.0, 7071.505683467258, 7276.835540784523, 20656.486578013282, 10970.966600816697, 0.0, 0.01600000075995922, 0.9920000471174717, 0.0, 0.0, 0.0, 0.0, 0.0, 1.6670525615608861E9, 0.0, 2022-10-29 16:09:21.560
69.0, 7314.754386435263, 7429.97135432018, 20603.095766245853, 11043.803022403736, 0.0, 0.01600000075995922, 0.9920000471174717, 0.0, 0.0, 0.0, 0.0, 0.0, 1.667052561561736E9, 0.0, 2022-10-29 16:09:21.561
69.0, 7463.335001824889, 7391.715917673428, 20359.08225373691, 10820.658151647542, 0.0, 0.01600000075995922, 0.9920000471174717, 0.0, 0.0, 0.0, 0.0, 0.0, 1.667052561561736E9, 0.0, 2022-10-29 16:09:21.561
70.0, 7664.291046143975, 7261.864721261896, 20447.070879994426, 10814.294711872935, 0.0, 0.01600000075995922, 0.9920000471174717, 0.0, 0.0, 0.0, 0.0, 0.0, 1.667052561575172E9, 0.0, 2022-10-29 16:09:21.575
70.0, 7561.045498017222, 7271.984890541993, 20650.742091681343, 10977.866716234945, 0.0, 0.01600000075995922, 0.9920000471174717, 0.0, 0.0, 0.0, 0.0, 0.0, 1.667052561575172E9, 0.0, 2022-10-29 16:09:21.575
71.0, 7350.040342517197, 7488.92339732172, 20650.20728598768, 11084.2687399243, 0.0, 0.03200000151991844, 0.9920000471174717, 0.0, 0.0, 0.0, 0.0, 0.0, 1.66705256159093E9, 0.0, 2022-10-29 16:09:21.590
71.0, 7451.300003767479, 7434.859403562266, 20851.11658155732, 11317.778743407689, 0.0, 0.03200000151991844, 0.9920000471174717, 0.0, 0.0, 0.0, 0.0, 0.0, 1.66705256159093E9, 0.0, 2022-10-29 16:09:21.590
72.0, 7669.6166636808775, 7260.604374976829, 20936.917366340756, 11313.906077003572, 0.0, 0.03200000151991844, 0.9920000471174717, 0.0, 0.0, 0.0, 0.0, 0.0, 1.6670525615917702E9, 0.0, 2022-10-29 16:09:21.591
72.0, 7538.497641184367, 7262.979211448692, 21124.866038613953, 11459.773394975346, 0.0, 0.03200000151991844, 0.9920000471174717, 0.0, 0.0, 0.0, 0.0, 0.0, 1.6670525615917702E9, 0.0, 2022-10-29 16:09:21.591
73.0, 7381.234848047607, 7503.692262246739, 21165.84225247847, 11583.951163154095, 0.0, 0.03200000151991844, 0.9920000471174717, 0.0, 0.0, 0.0, 0.0, 0.0, 1.6670525616052492E9, 0.0, 2022-10-29 16:09:21.605
73.0, 7440.738526292611, 7410.321919952985, 21339.502636970952, 11797.699535271619, 0.0, 0.03200000151991844, 0.9920000471174717, 0.0, 0.0, 0.0, 0.0, 0.0, 1.6670525616052492E9, 0.0, 2022-10-29 16:09:21.605
74.0, 7637.935971156228, 7214.835479319096, 21382.462867761962, 11775.983806178905, 0.0, 0.03200000151991844, 0.9920000471174717, 0.0, 0.0, 0.0, 0.0, 0.0, 1.6670525616208963E9, 0.0, 2022-10-29 16:09:21.620
74.0, 7547.858610773459, 7268.439465383999, 21618.491693865508, 11959.324921706691, 0.0, 0.03200000151991844, 0.9920000471174717, 0.0, 0.0, 0.0, 0.0, 0.0, 1.6670525616208963E9, 0.0, 2022-10-29 16:09:21.620
75.0, 7403.135702188127, 7041.356479974464, 21663.024552587885, 12101.424290473107, 0.0, 0.03200000151991844, 0.9920000471174717, 0.0, 0.0, 0.0, 0.0, 0.0, 1.6670525616218016E9, 0.0, 2022-10-29 16:09:21.621
75.0, 7440.263558998238, 6938.797203489579, 21833.696757015772, 12305.695756102912, 0.0, 0.03200000151991844, 0.9920000471174717, 0.0, 0.0, 0.0, 0.0, 0.0, 1.6670525616218016E9, 0.0, 2022-10-29 16:09:21.621
76.0, 7641.616032712627, 6729.046784424689, 21897.35359416157, 12280.774932748172, 0.0, 0.03200000151991844, 0.9920000471174717, 0.0, 0.0, 0.0, 0.0, 0.0, 1.667052561635159E9, 0.0, 2022-10-29 16:09:21.635
76.0, 7526.118572331034, 6760.978050246369, 22095.86748380959, 12437.985367285553, 0.0, 0.03200000151991844, 0.9920000471174717, 0.0, 0.0, 0.0, 0.0, 0.0, 1.667052561635159E9, 0.0, 2022-10-29 16:09:21.635
77.0, 7442.367252723314, 6594.036396024283, 22214.16986915795, 12635.0874447003, 0.0, 0.03200000151991844, 0.9920000471174717, 0.0, 0.0, 0.0, 0.0, 0.0, 1.6670525616508884E9, 0.0, 2022-10-29 16:09:21.650
77.0, 7424.1240207394585, 6421.193179672118, 22302.855986757204, 12784.146767284255, 0.0, 0.03200000151991844, 0.9920000471174717, 0.0, 0.0, 0.0, 0.0, 0.0, 1.6670525616508884E9, 0.0, 2022-10-29 16:09:21.650
78.0, 7602.169437929988, 6212.9761195890605, 22359.081642691046, 12745.493031292222, 0.0, 0.03200000151991844, 0.9920000471174717, 0.0, 0.0, 0.0, 0.0, 0.0, 1.6670525616516747E9, 0.0, 2022-10-29 16:09:21.651
78.0, 7518.528445370961, 6301.4284934410825, 22582.073177549057, 12928.325520426035, 0.0, 0.03200000151991844, 0.9920000471174717, 0.0, 0.0, 0.0, 0.0, 0.0, 1.6670525616516747E9, 0.0, 2022-10-29 16:09:21.651
79.0, 7506.687922111247, 6195.8137186924, 22758.80401990516, 12685.291861705482, 0.0, 0.03200000151991844, 0.9920000471174717, 0.0, 0.0, 0.0, 0.0, 0.0, 1.6670525616652932E9, 0.0, 2022-10-29 16:09:21.665
79.0, 7412.951069621835, 6370.719489870127, 22781.155531990342, 12747.622904316988, 0.0, 0.03200000151991844, 0.9920000471174717, 0.0, 0.0, 0.0, 0.0, 0.0, 1.6670525616652932E9, 0.0, 2022-10-29 16:09:21.665
80.0, 7638.945744144265, 6244.60445351433, 22875.688983170316, 12784.35994158173, 0.0, 0.03200000151991844, 0.9920000471174717, 0.0, 0.0, 0.0, 0.0, 0.0, 1.667052561680928E9, 0.0, 2022-10-29 16:09:21.680
80.0, 7500.182366138324, 6260.125038330443, 23054.560918251052, 12943.81805599248, 0.0, 0.03200000151991844, 0.9920000471174717, 0.0, 0.0, 0.0, 0.0, 0.0, 1.667052561680928E9, 0.0, 2022-10-29 16:09:21.680
81.0, 7499.591461945325, 6166.825754135847, 23240.484434698243, 13184.691922488622, 0.0, 0.03200000151991844, 0.9920000471174717, 0.0, 0.0, 0.0, 0.0, 0.0, 1.6670525616817017E9, 0.0, 2022-10-29 16:09:21.681
81.0, 7416.288930332288, 6384.74785460392, 23271.920163775794, 13274.107320579235, 0.0, 0.03200000151991844, 0.9920000471174717, 0.0, 0.0, 0.0, 0.0, 0.0, 1.6670525616817017E9, 0.0, 2022-10-29 16:09:21.681
82.0, 7615.105751876719, 6221.327316190116, 23339.904065170325, 13255.215215953067, 0.0, 0.03200000151991844, 0.9920000471174717, 0.0, 0.0, 0.0, 0.0, 0.0, 1.667052561695222E9, 0.0, 2022-10-29 16:09:21.695
82.0, 7502.461835161317, 6258.864692045376, 23549.64139458537, 13417.04816683568, 0.0, 0.03200000151991844, 0.9920000471174717, 0.0, 0.0, 0.0, 0.0, 0.0, 1.667052561695222E9, 0.0, 2022-10-29 16:09:21.695
83.0, 7509.614393826574, 6154.461644882336, 23742.173314254265, 13182.526520414278, 0.0, 0.03200000151991844, 0.9920000471174717, 0.0, 0.0, 0.0, 0.0, 0.0, 1.6670525617109315E9, 0.0, 2022-10-29 16:09:21.710
83.0, 7423.817348943092, 5918.960144672543, 23770.00377977453, 13282.151845383924, 0.0, 0.03200000151991844, 0.9920000471174717, 0.0, 0.0, 0.0, 0.0, 0.0, 1.6670525617109315E9, 0.0, 2022-10-29 16:09:21.710
84.0, 7596.129499501549, 5708.835735612083, 23816.490736223757, 13228.534769669175, 0.0, 0.03200000151991844, 0.9920000471174717, 0.0, 0.0, 0.0, 0.0, 0.0, 1.667052561711652E9, 0.0, 2022-10-29 16:09:21.711
84.0, 7509.410569278989, 5775.013265328016, 24045.417492311448, 13422.24662777409, 0.0, 0.03200000151991844, 0.9920000471174717, 0.0, 0.0, 0.0, 0.0, 0.0, 1.667052561711652E9, 0.0, 2022-10-29 16:09:21.711
85.0, 7544.313185615465, 5734.861699403729, 24261.27516800398, 13213.620048645884, 0.0, 0.03200000151991844, 0.9920000471174717, 0.0, 0.0, 0.0, 0.0, 0.0, 1.6670525617252307E9, 0.0, 2022-10-29 16:09:21.725
85.0, 7429.700211573392, 5919.599667564966, 24274.250750900246, 13281.45248409221, 0.0, 0.03200000151991844, 0.9920000471174717, 0.0, 0.0, 0.0, 0.0, 0.0, 1.6670525617252307E9, 0.0, 2022-10-29 16:09:21.725
86.0, 7612.555140106939, 5704.142161167692, 24315.139077115804, 13248.229082835838, 0.0, 0.03200000151991844, 0.9920000471174717, 0.0, 0.0, 0.0, 0.0, 0.0, 1.6670525617409303E9, 0.0, 2022-10-29 16:09:21.740
86.0, 7487.97720263293, 5741.94133001985, 24512.890027172863, 13408.322980239056, 0.0, 0.03200000151991844, 0.9920000471174717, 0.0, 0.0, 0.0, 0.0, 0.0, 1.6670525617409303E9, 0.0, 2022-10-29 16:09:21.740
87.0, 7592.673831942491, 5764.715450800024, 24315.31485241372, 13264.22837484628, 0.0, 0.03200000151991844, 0.9920000471174717, 0.0, 0.0, 0.0, 0.0, 0.0, 1.6670525617416005E9, 0.0, 2022-10-29 16:09:21.741
87.0, 7399.493039631285, 5892.236689539161, 24240.34481790196, 13271.279956212733, 0.0, 0.03200000151991844, 0.9920000471174717, 0.0, 0.0, 0.0, 0.0, 0.0, 1.6670525617416005E9, 0.0, 2022-10-29 16:09:21.741
88.0, 7607.768068163656, 5720.7117879213765, 24314.099384928122, 13253.715516070835, 0.0, 0.03200000151991844, 0.9920000471174717, 0.0, 0.0, 0.0, 0.0, 0.0, 1.6670525617552884E9, 0.0, 2022-10-29 16:09:21.755
88.0, 7480.123412725981, 5753.536889832467, 24515.107787846588, 13396.972383873537, 0.0, 0.03200000151991844, 0.9920000471174717, 0.0, 0.0, 0.0, 0.0, 0.0, 1.6670525617552884E9, 0.0, 2022-10-29 16:09:21.755
89.0, 7584.281496441923, 5768.618036403786, 24322.884409924038, 13277.033792294562, 0.0, 0.03200000151991844, 0.9920000471174717, 0.0, 0.0, 0.0, 0.0, 0.0, 1.667052561770936E9, 0.0, 2022-10-29 16:09:21.770
89.0, 7380.9468757510185, 5839.539629213512, 24224.37170519121, 13262.9605487613, 0.0, 0.03200000151991844, 0.9920000471174717, 0.0, 0.0, 0.0, 0.0, 0.0, 1.667052561770936E9, 0.0, 2022-10-29 16:09:21.770
90.0, 7552.137056322768, 5653.290741470177, 24248.79699180182, 13196.137886303011, 0.0, 0.03200000151991844, 0.9920000471174717, 0.0, 0.0, 0.0, 0.0, 0.0, 1.6670525617716477E9, 0.0, 2022-10-29 16:09:21.771
90.0, 7497.607445018832, 5778.876581982244, 24038.601524642203, 13421.212545436341, 0.0, 0.03200000151991844, 0.9920000471174717, 0.0, 0.0, 0.0, 0.0, 0.0, 1.6670525617716477E9, 0.0, 2022-10-29 16:09:21.771
91.0, 7595.374039710499, 5760.936281894799, 23821.395615015645, 13260.598801939283, 0.0, 0.03200000151991844, 0.9920000471174717, 0.0, 0.0, 0.0, 0.0, 0.0, 1.6670525617853186E9, 0.0, 2022-10-29 16:09:21.785
91.0, 7412.0516236824915, 5906.689532917924, 23772.387965996284, 13297.300310154445, 0.0, 0.03200000151991844, 0.9920000471174717, 0.0, 0.0, 0.0, 0.0, 0.0, 1.6670525617853186E9, 0.0, 2022-10-29 16:09:21.785
92.0, 7564.089776581153, 5703.663453973364, 23791.64471086813, 13230.260733498726, 0.0, 0.03200000151991844, 0.9920000471174717, 0.0, 0.0, 0.0, 0.0, 0.0, 1.6670525618009453E9, 0.0, 2022-10-29 16:09:21.800
92.0, 7492.932570074219, 5761.052218793426, 24029.60706524877, 13430.128466930706, 0.0, 0.03200000151991844, 0.9920000471174717, 0.0, 0.0, 0.0, 0.0, 0.0, 1.6670525618009453E9, 0.0, 2022-10-29 16:09:21.800
93.0, 7633.820211254992, 5789.944815901108, 23866.079939686228, 13327.064303951804, 0.0, 0.03200000151991844, 0.9920000471174717, 0.0, 0.0, 0.0, 0.0, 0.0, 1.6670525618015747E9, 0.0, 2022-10-29 16:09:21.801
93.0, 7876.866959625389, 5901.50416162936, 23745.33726961678, 13271.515569909941, 0.0, 0.03200000151991844, 0.9920000471174717, 0.0, 0.0, 0.0, 0.0, 0.0, 1.6670525618015747E9, 0.0, 2022-10-29 16:09:21.801
94.0, 8041.448736975435, 6145.44287613919, 23762.982117607724, 13221.76181084942, 0.0, 0.03200000151991844, 0.9920000471174717, 0.0, 0.0, 0.0, 0.0, 0.0, 1.6670525618152647E9, 0.0, 2022-10-29 16:09:21.815
94.0, 7985.288529290818, 6253.1258155633695, 23531.12514990475, 13420.066266099922, 0.0, 0.03200000151991844, 0.9920000471174717, 0.0, 0.0, 0.0, 0.0, 0.0, 1.6670525618152647E9, 0.0, 2022-10-29 16:09:21.815
95.0, 8135.739094658289, 6266.841898650862, 23385.69914012775, 13316.972183921374, 0.0, 0.03200000151991844, 0.9920000471174717, 0.0, 0.0, 0.0, 0.0, 0.0, 1.667052561830992E9, 0.0, 2022-10-29 16:09:21.830
95.0, 8359.708613354713, 6323.780005526263, 23245.886720184237, 13278.006166283041, 0.0, 0.03200000151991844, 0.9920000471174717, 0.0, 0.0, 0.0, 0.0, 0.0, 1.667052561830992E9, 0.0, 2022-10-29 16:09:21.830
96.0, 8503.234753954224, 6125.294165127911, 23260.008582416922, 13203.17637801962, 0.0, 0.03200000151991844, 0.9920000471174717, 0.0, 0.0, 0.0, 0.0, 0.0, 1.667052561831584E9, 0.0, 2022-10-29 16:09:21.831
96.0, 8473.538078356069, 6232.547016057186, 23052.06453503063, 13443.173237976152, 0.0, 0.03200000151991844, 0.9920000471174717, 0.0, 0.0, 0.0, 0.0, 0.0, 1.667052561831584E9, 0.0, 2022-10-29 16:09:21.831
97.0, 8640.676077325828, 6297.279074440245, 22916.21640904015, 13343.157093461137, 0.0, 0.03200000151991844, 0.9920000471174717, 0.0, 0.0, 0.0, 0.0, 0.0, 1.6670525618451912E9, 0.0, 2022-10-29 16:09:21.845
97.0, 8859.514453283045, 6401.904645650648, 22751.40275789285, 13288.165604512673, 0.0, 0.03200000151991844, 0.9920000471174717, 0.0, 0.0, 0.0, 0.0, 0.0, 1.6670525618451912E9, 0.0, 2022-10-29 16:09:21.845
98.0, 8992.89424530277, 6618.029724190012, 22769.167282682378, 13206.11780933477, 0.0, 0.03200000151991844, 0.9920000471174717, 0.0, 0.0, 0.0, 0.0, 0.0, 1.667052561860895E9, 0.0, 2022-10-29 16:09:21.860
98.0, 8960.770374633372, 6742.448715915903, 22550.257848626003, 13417.130444634706, 0.0, 0.03200000151991844, 0.9920000471174717, 0.0, 0.0, 0.0, 0.0, 0.0, 1.667052561860895E9, 0.0, 2022-10-29 16:09:21.860
99.0, 9187.342863698956, 6828.217711549718, 22485.08635199815, 13380.438286169432, 0.0, 0.03200000151991844, 0.9920000471174717, 0.0, 0.0, 0.0, 0.0, 0.0, 1.6670525618615713E9, 0.0, 2022-10-29 16:09:21.861
99.0, 9331.050389446318, 6850.404668036848, 22264.94088100642, 13289.644734945148, 0.0, 0.03200000151991844, 0.9920000471174717, 0.0, 0.0, 0.0, 0.0, 0.0, 1.6670525618615713E9, 0.0, 2022-10-29 16:09:21.861
100.0, 9463.199754380621, 7073.444821594283, 22243.827275806572, 13192.04269585153, 0.0, 0.03200000151991844, 0.9920000471174717, 0.0, 0.0, 0.0, 0.0, 0.0, 1.6670525618756297E9, 0.0, 2022-10-29 16:09:21.875
100.0, 9439.943186506163, 7209.846452778205, 22069.11597942654, 12947.716901696287, 0.0, 0.03200000151991844, 0.9920000471174717, 0.0, 0.0, 0.0, 0.0, 0.0, 1.6670525618756297E9, 0.0, 2022-10-29 16:09:21.875
0.0, -1135.1830532504246, -1033.1511026592925, -1079.22854006337, -1329.280121050775, 0.0, 0.03200000151991844, 0.9920000471174717, 0.0, 0.0, 0.0, 0.0, 0.0, 1.667052561890908E9, 0.0, 2022-10-29 16:09:21.890
1.0, -923.2335730115883, -951.2005448802374, -1242.4265544298105, -1391.8000286100432, 0.0, 0.03200000151991844, 0.9920000471174717, 0.0, 0.0, 0.0, 0.0, 0.0, 1.6670525618917162E9, 0.0, 2022-10-29 16:09:21.891
1.0, -848.8806219925173, -804.7086636158638, -1302.8128490643576, -1547.4303554161452, 0.0, 0.03200000151991844, 0.9920000471174717, 0.0, 0.0, 0.0, 0.0, 0.0, 1.6670525618917162E9, 0.0, 2022-10-29 16:09:21.891
2.0, -853.4339501885697, -632.4301721570082, -1469.8797899349593, -1321.1925873965956, 0.0, 0.03200000151991844, 0.9920000471174717, 0.0, 0.0, 0.0, 0.0, 0.0, 1.6670525619058683E9, 0.0, 2022-10-29 16:09:21.905
2.0, -1092.06200676132, -479.35793692059815, -1521.8905786187388, -1316.1904712058604, 0.0, 0.03200000151991844, 0.9920000471174717, 0.0, 0.0, 0.0, 0.0, 0.0, 1.6670525619058683E9, 0.0, 2022-10-29 16:09:21.905
3.0, -913.696828124579, -452.40260798996314, -1709.188508299645, -1346.5098401466385, 0.0, 0.03200000151991844, 0.9920000471174717, 0.0, 0.0, 0.0, 0.0, 0.0, 1.6670525619065635E9, 0.0, 2022-10-29 16:09:21.906
3.0, -881.6234461045824, -349.95178860379383, -1805.2123096119612, -1540.7321945955046, 0.0, 0.03200000151991844, 0.9920000471174717, 0.0, 0.0, 0.0, 0.0, 0.0, 1.6670525619065635E9, 0.0, 2022-10-29 16:09:21.906
4.0, -896.3493021801114, -192.01207357505336, -1995.1188195119612, -1346.6500863949768, 0.0, 0.03200000151991844, 0.9920000471174717, 0.0, 0.0, 0.0, 0.0, 0.0, 1.667052561920191E9, 0.0, 2022-10-29 16:09:21.920
4.0, -1086.1380052315071, 39.89351282734424, -1988.5459453398362, -1271.8389976313338, 0.0, 0.03200000151991844, 0.9920000471174717, 0.0, 0.0, 0.0, 0.0, 0.0, 1.667052561920191E9, 0.0, 2022-10-29 16:09:21.920
5.0, -892.772087872494, 51.34321654168889, -2179.781989674084, -1339.93135612458, 0.0, 0.03200000151991844, 0.9920000471174717, 0.0, 0.0, 0.0, 0.0, 0.0, 1.6670525619358768E9, 0.0, 2022-10-29 16:09:21.935
5.0, -883.9421840771101, 186.4433625410311, -2305.968084129039, -1562.0197051432915, 0.0, 0.03200000151991844, 0.9920000471174717, 0.0, 0.0, 0.0, 0.0, 0.0, 1.6670525619358768E9, 0.0, 2022-10-29 16:09:21.935
6.0, -904.1731728874147, 295.1323350532912, -2512.3600730337203, -1360.7308097281493, 0.0, 0.03200000151991844, 0.9920000471174717, 0.0, 0.0, 0.0, 0.0, 0.0, 1.6670525619366019E9, 0.0, 2022-10-29 16:09:21.936
6.0, -1009.6832304373384, 54.04716420965269, -2429.8260908615775, -1246.2580819344148, 0.0, 0.03200000151991844, 0.9920000471174717, 0.0, 0.0, 0.0, 0.0, 0.0, 1.6670525619366019E9, 0.0, 2022-10-29 16:09:21.936
7.0, -917.71348067699, 53.142108420375735, -2198.0476610576734, -1357.6996208140627, 0.0, 0.03200000151991844, 0.9920000471174717, 0.0, 0.0, 0.0, 0.0, 0.0, 1.6670525619502037E9, 0.0, 2022-10-29 16:09:21.950
7.0, -873.7659162976779, 203.90121553419158, -2282.4927321071737, -1565.6848070998676, 0.0, 0.03200000151991844, 0.9920000471174717, 0.0, 0.0, 0.0, 0.0, 0.0, 1.6670525619502037E9, 0.0, 2022-10-29 16:09:21.950
8.0, -921.7918415786698, 297.40245432639495, -2500.7289841715246, -1390.8220447716303, 0.0, 0.03200000151991844, 0.9920000471174717, 0.0, 0.0, 0.0, 0.0, 0.0, 1.6670525619658668E9, 0.0, 2022-10-29 16:09:21.965
8.0, -976.7197522278875, 122.14326260285452, -2387.9429512578063, -1220.000244345516, 0.0, 0.03200000151991844, 0.9920000471174717, 0.0, 0.0, 0.0, 0.0, 0.0, 1.6670525619658668E9, 0.0, 2022-10-29 16:09:21.965
9.0, -929.5502640367486, 45.905402006115764, -2222.173755671829, -1398.0082625364885, 0.0, 0.03200000151991844, 0.9920000471174717, 0.0, 0.0, 0.0, 0.0, 0.0, 1.667052561966575E9, 0.0, 2022-10-29 16:09:21.966
9.0, -865.9196061906405, 199.23756028944626, -2285.469692471903, -1568.489732066635, 0.0, 0.03200000151991844, 0.9920000471174717, 0.0, 0.0, 0.0, 0.0, 0.0, 1.667052561966575E9, 0.0, 2022-10-29 16:09:21.966
10.0, -916.5896407403052, 292.87717538001016, -2517.1060060774907, -1397.5239454922266, 0.0, 0.03200000151991844, 0.9920000471174717, 0.0, 0.0, 0.0, 0.0, 0.0, 1.6670525619802108E9, 0.0, 2022-10-29 16:09:21.980
10.0, -926.0216684285551, 169.52779504144564, -2337.510400355328, -1177.787993545644, 0.0, 0.03200000151991844, 0.9920000471174717, 0.0, 0.0, 0.0, 0.0, 0.0, 1.6670525619802108E9, 0.0, 2022-10-29 16:09:21.980
11.0, -938.3147195829079, -38.81081179017201, -2235.7570723108947, -944.1321339639835, 0.0, 0.03200000151991844, 0.9920000471174717, 0.0, 0.0, 0.0, 0.0, 0.0, 1.6670525620122404E9, 0.0, 2022-10-29 16:09:22.012
11.0, -847.7567820558324, 166.00480928318575, -2280.596602829639, -1084.5971664497629, 0.0, 0.03200000151991844, 0.9920000471174717, 0.0, 0.0, 0.0, 0.0, 0.0, 1.6670525620122404E9, 0.0, 2022-10-29 16:09:22.012
12.0, -945.4261393486522, 238.71220432175323, -2056.2736635874026, -929.6905102850869, 0.0, 0.03200000151991844, 0.9920000471174717, 0.0, 0.0, 0.0, 0.0, 0.0, 1.6670525620131273E9, 0.0, 2022-10-29 16:09:22.013
12.0, -913.9754506712779, 176.3605922604911, -1836.6012899400666, -1171.5461005195975, 0.0, 0.03200000151991844, 0.9920000471174717, 0.0, 0.0, 0.0, 0.0, 0.0, 1.6670525620131273E9, 0.0, 2022-10-29 16:09:22.013
13.0, -932.9666626462713, -21.58109269430861, -1738.8646144480444, -1415.7166888266802, 0.0, 0.03200000151991844, 0.9920000471174717, 0.0, 0.0, 0.0, 0.0, 0.0, 1.6670525620137513E9, 0.0, 2022-10-29 16:09:22.013
13.0, -885.3315569106489, 139.07378970226273, -1832.7080540861934, -1619.8946569575928, 0.0, 0.03200000151991844, 0.9920000471174717, 0.0, 0.0, 0.0, 0.0, 0.0, 1.6670525620137513E9, 0.0, 2022-10-29 16:09:22.013
14.0, -934.7225456754677, 285.4871330675669, -2047.9860452855937, -1413.1903864066117, 0.0, 0.03200000151991844, 0.9920000471174717, 0.0, 0.0, 0.0, 0.0, 0.0, 1.6670525620144968E9, 0.0, 2022-10-29 16:09:22.014
14.0, -890.8105103457347, 213.05275072576478, -1819.158396546729, -1657.8396819080226, 0.0, 0.03200000151991844, 0.9920000471174717, 0.0, 0.0, 0.0, 0.0, 0.0, 1.6670525620144968E9, 0.0, 2022-10-29 16:09:22.014
15.0, -911.5295561002567, 9.86398613313213, -1726.0778964995407, -1424.6999285202473, 0.0, 0.03200000151991844, 0.9920000471174717, 0.0, 0.0, 0.0, 0.0, 0.0, 1.667052562025248E9, 0.0, 2022-10-29 16:09:22.025
15.0, -881.2288866592571, 179.60682542202994, -1819.6333638411015, -1600.787508083973, 0.0, 0.03200000151991844, 0.9920000471174717, 0.0, 0.0, 0.0, 0.0, 0.0, 1.667052562025248E9, 0.0, 2022-10-29 16:09:22.025
16.0, -954.1251466455869, 271.23437433643267, -2055.506984096486, -1424.8626141683199, 0.0, 0.03200000151991844, 0.9920000471174717, 0.0, 0.0, 0.0, 0.0, 0.0, 1.667052562040269E9, 0.0, 2022-10-29 16:09:22.040
16.0, -834.7531499098986, 259.41629047645256, -2259.8326782756485, -1588.0120098353364, 0.0, 0.03200000151991844, 0.9920000471174717, 0.0, 0.0, 0.0, 0.0, 0.0, 1.667052562040269E9, 0.0, 2022-10-29 16:09:22.040
17.0, -916.6419993396848, 503.3419153364375, -2244.448599807918, -1425.1935953143984, 0.0, 0.03200000151991844, 0.9920000471174717, 0.0, 0.0, 0.0, 0.0, 0.0, 1.66705256205587E9, 0.0, 2022-10-29 16:09:22.055
17.0, -873.6668089488521, 632.9818074004725, -2304.6030206452124, -1588.9843838238157, 0.0, 0.03200000151991844, 0.9920000471174717, 0.0, 0.0, 0.0, 0.0, 0.0, 1.66705256205587E9, 0.0, 2022-10-29 16:09:22.055
18.0, -961.7994213546626, 742.2691639056429, -2084.263074855786, -1440.3869388843887, 0.0, 0.03200000151991844, 0.9920000471174717, 0.0, 0.0, 0.0, 0.0, 0.0, 1.667052562056687E9, 0.0, 2022-10-29 16:09:22.056
18.0, -825.5455162189901, 729.3066706592217, -2255.0942250317894, -1593.5657612695359, 0.0, 0.03200000151991844, 0.9920000471174717, 0.0, 0.0, 0.0, 0.0, 0.0, 1.667052562056687E9, 0.0, 2022-10-29 16:09:22.056
19.0, -939.8256391650066, 926.4611066733487, -2232.0919703543186, -1429.2887857658789, 0.0, 0.03200000151991844, 0.9920000471174717, 0.0, 0.0, 0.0, 0.0, 0.0, 1.667052562070305E9, 0.0, 2022-10-29 16:09:22.070
19.0, -917.846247125417, 1074.5536651187576, -2353.6630282639526, -1626.7162344767712, 0.0, 0.03200000151991844, 0.9920000471174717, 0.0, 0.0, 0.0, 0.0, 0.0, 1.667052562070305E9, 0.0, 2022-10-29 16:09:22.070
20.0, -962.0686941514723, 1225.982214324642, -2582.688891700469, -1432.170378681738, 0.0, 0.03200000151991844, 0.9920000471174717, 0.0, 0.0, 0.0, 0.0, 0.0, 1.667052562085872E9, 0.0, 2022-10-29 16:09:22.085
20.0, -831.3049621507525, 1260.2490476686507, -2746.290815262124, -1590.3606670075096, 0.0, 0.03200000151991844, 0.9920000471174717, 0.0, 0.0, 0.0, 0.0, 0.0, 1.667052562085872E9, 0.0, 2022-10-29 16:09:22.085
21.0, -925.9281709296629, 1436.5423217299394, -2728.9432893176563, -1398.9357577254996, 0.0, 0.03200000151991844, 0.9920000471174717, 0.0, 0.0, 0.0, 0.0, 0.0, 1.6670525620866451E9, 0.0, 2022-10-29 16:09:22.086
21.0, -915.1647388571873, 1562.7302861348726, -2839.1600109618157, -1614.946769316215, 0.0, 0.03200000151991844, 0.9920000471174717, 0.0, 0.0, 0.0, 0.0, 0.0, 1.6670525620866451E9, 0.0, 2022-10-29 16:09:22.086
22.0, -973.5688865152188, 1690.2085160245188, -3067.6510687046684, -1440.3383201849647, 0.0, 0.03200000151991844, 0.9920000471174717, 0.0, 0.0, 0.0, 0.0, 0.0, 1.6670525621001735E9, 0.0, 2022-10-29 16:09:22.100
22.0, -773.4973285356537, 1780.5252300044522, -3173.209744954016, -1543.41744276369, 0.0, 0.03200000151991844, 0.9920000471174717, 0.0, 0.0, 0.0, 0.0, 0.0, 1.6670525621001735E9, 0.0, 2022-10-29 16:09:22.100
23.0, -953.1284633073956, 1923.9073844556697, -3245.610468196217, -1416.6741032153368, 0.0, 0.03200000151991844, 0.9920000471174717, 0.0, 0.0, 0.0, 0.0, 0.0, 1.6670525621158803E9, 0.0, 2022-10-29 16:09:22.115
23.0, -939.8779977643862, 2032.4916397691704, -3371.942418749444, -1640.2546723163687, 0.0, 0.03200000151991844, 0.9920000471174717, 0.0, 0.0, 0.0, 0.0, 0.0, 1.6670525621158803E9, 0.0, 2022-10-29 16:09:22.115
24.0, -968.8977514705621, 2190.019965802785, -3570.8321683430113, -1410.737012035679, 0.0, 0.03200000151991844, 0.9920000471174717, 0.0, 0.0, 0.0, 0.0, 0.0, 1.6670525621166143E9, 0.0, 2022-10-29 16:09:22.116
24.0, -770.658744469285, 2314.122935982421, -3693.5682050888427, -1514.3210211084224, 0.0, 0.03200000151991844, 0.9920000471174717, 0.0, 0.0, 0.0, 0.0, 0.0, 1.6670525621166143E9, 0.0, 2022-10-29 16:09:22.116
25.0, -946.5125802857801, 2423.5430589360185, -3729.5348229627125, -1401.4975891951472, 0.0, 0.03200000151991844, 0.9920000471174717, 0.0, 0.0, 0.0, 0.0, 0.0, 1.6670525621302793E9, 0.0, 2022-10-29 16:09:22.130
25.0, -909.9176592193544, 2561.283574304078, -3865.5157154016197, -1608.5627600918524, 0.0, 0.03200000151991844, 0.9920000471174717, 0.0, 0.0, 0.0, 0.0, 0.0, 1.6670525621302793E9, 0.0, 2022-10-29 16:09:22.130
26.0, -978.4905948569067, 2645.5510001056828, -4082.843171776738, -1425.0009904666804, 0.0, 0.03200000151991844, 0.9920000471174717, 0.0, 0.0, 0.0, 0.0, 0.0, 1.6670525621458845E9, 0.0, 2022-10-29 16:09:22.145
26.0, -752.6099872831255, 2802.939079890959, -4171.650836124551, -1518.232956462074, 0.0, 0.03200000151991844, 0.9920000471174717, 0.0, 0.0, 0.0, 0.0, 0.0, 1.6670525621458845E9, 0.0, 2022-10-29 16:09:22.145
27.0, -960.166955024004, 2919.951199754607, -4248.6104974127375, -1404.8074006559327, 0.0, 0.03200000151991844, 0.9920000471174717, 0.0, 0.0, 0.0, 0.0, 0.0, 1.6670525621466253E9, 0.0, 2022-10-29 16:09:22.146
27.0, -946.2320877891034, 3019.0361091806553, -4371.2175076100975, -1632.7112941057421, 0.0, 0.03200000151991844, 0.9920000471174717, 0.0, 0.0, 0.0, 0.0, 0.0, 1.6670525621466253E9, 0.0, 2022-10-29 16:09:22.146
28.0, -980.5924186320044, 3155.841649559792, -4563.480154482182, -1429.0849612182938, 0.0, 0.03200000151991844, 0.9920000471174717, 0.0, 0.0, 0.0, 0.0, 0.0, 1.6670525621602547E9, 0.0, 2022-10-29 16:09:22.160
28.0, -1220.8061927859671, 3311.2288828687742, -4659.864856140222, -1496.8482085154392, 0.0, 0.03200000151991844, 0.9920000471174717, 0.0, 0.0, 0.0, 0.0, 0.0, 1.6670525621602547E9, 0.0, 2022-10-29 16:09:22.160
29.0, -1424.5634221718647, 3368.024873545859, -4738.339176910464, -1385.819928580895, 0.0, 0.03200000151991844, 0.9920000471174717, 0.0, 0.0, 0.0, 0.0, 0.0, 1.6670525621759677E9, 0.0, 2022-10-29 16:09:22.175
29.0, -1446.6606210600585, 3491.972637877334, -4881.459538364783, -1629.371563445311, 0.0, 0.03200000151991844, 0.9920000471174717, 0.0, 0.0, 0.0, 0.0, 0.0, 1.6670525621759677E9, 0.0, 2022-10-29 16:09:22.175
30.0, -1464.1727026025765, 3638.2513448442332, -5057.569557328243, -1429.7057846109383, 0.0, 0.03200000151991844, 0.9920000471174717, 0.0, 0.0, 0.0, 0.0, 0.0, 1.6670525621766372E9, 0.0, 2022-10-29 16:09:22.176
30.0, -1230.1241535255685, 3774.6511060781777, -5143.561077009421, -1492.9587125615217, 0.0, 0.03200000151991844, 0.9920000471174717, 0.0, 0.0, 0.0, 0.0, 0.0, 1.6670525621766372E9, 0.0, 2022-10-29 16:09:22.176
31.0, -1432.0712713329121, 3906.940717260819, -5199.854051142465, -1375.991471497342, 0.0, 0.03200000151991844, 0.9920000471174717, 0.0, 0.0, 0.0, 0.0, 0.0, 1.667052562190209E9, 0.0, 2022-10-29 16:09:22.190
31.0, -1453.1362578333355, 4011.7027948196046, -5363.914112448692, -1150.0454156743363, 0.0, 0.03200000151991844, 0.9920000471174717, 0.0, 0.0, 0.0, 0.0, 0.0, 1.667052562190209E9, 0.0, 2022-10-29 16:09:22.190
32.0, -1478.9359576776624, 4170.0838180431165, -5545.862115242984, -927.2184364143759, 0.0, 0.03200000151991844, 0.9920000471174717, 0.0, 0.0, 0.0, 0.0, 0.0, 1.667052562205897E9, 0.0, 2022-10-29 16:09:22.205
32.0, -1693.931586430408, 4312.916207200848, -5592.801599586848, -975.3584286440164, 0.0, 0.03200000151991844, 0.9920000471174717, 0.0, 0.0, 0.0, 0.0, 0.0, 1.667052562205897E9, 0.0, 2022-10-29 16:09:22.205
33.0, -1936.9914244506508, 4412.997799965087, -5714.333388546947, -893.9912952580489, 0.0, 0.03200000151991844, 0.9920000471174717, 0.0, 0.0, 0.0, 0.0, 0.0, 1.667052562206584E9, 0.0, 2022-10-29 16:09:22.206
33.0, -1990.6533789648674, 4436.7312050838955, -5906.554896519519, -688.5548507920466, 0.0, 0.03200000151991844, 0.9920000471174717, 0.0, 0.0, 0.0, 0.0, 0.0, 1.667052562206584E9, 0.0, 2022-10-29 16:09:22.206
34.0, -1966.1233751554973, 4639.134590685833, -6046.855373407248, -925.9543502293527, 0.0, 0.03200000151991844, 0.9920000471174717, 0.0, 0.0, 0.0, 0.0, 0.0, 1.667052562220197E9, 0.0, 2022-10-29 16:09:22.220
34.0, -2187.1439827368595, 4790.815583138727, -6100.0891093765385, -983.1187210520729, 0.0, 0.03200000151991844, 0.9920000471174717, 0.0, 0.0, 0.0, 0.0, 0.0, 1.667052562220197E9, 0.0, 2022-10-29 16:09:22.220
35.0, -2388.5824741502292, 4828.074336447287, -6173.103176211473, -889.3762587127276, 0.0, 0.03200000151991844, 0.9920000471174717, 0.0, 0.0, 0.0, 0.0, 0.0, 1.6670525622359471E9, 0.0, 2022-10-29 16:09:22.235
35.0, -2484.6287148622796, 4906.279384420719, -6406.691717593931, -691.9544198517688, 0.0, 0.03200000151991844, 0.9920000471174717, 0.0, 0.0, 0.0, 0.0, 0.0, 1.6670525622359471E9, 0.0, 2022-10-29 16:09:22.235
36.0, -2471.7372797150165, 5109.591565711889, -6541.887231042143, -456.4940585414879, 0.0, 0.03200000151991844, 0.9920000471174717, 0.0, 0.0, 0.0, 0.0, 0.0, 1.6670525622366586E9, 0.0, 2022-10-29 16:09:22.236
36.0, -2596.1637512408197, 4885.6014775657095, -6498.427723607048, -421.70737910363823, 0.0, 0.03200000151991844, 0.9920000471174717, 0.0, 0.0, 0.0, 0.0, 0.0, 1.6670525622366586E9, 0.0, 2022-10-29 16:09:22.236
37.0, -2430.929361348506, 4830.924140213523, -6692.711786405183, -415.3626388288103, 0.0, 0.03200000151991844, 0.9920000471174717, 0.0, 0.0, 0.0, 0.0, 0.0, 1.667052562250228E9, 0.0, 2022-10-29 16:09:22.250
37.0, -2479.149761427194, 4925.895159688313, -6883.373756096233, -193.63519015582278, 0.0, 0.03200000151991844, 0.9920000471174717, 0.0, 0.0, 0.0, 0.0, 0.0, 1.667052562250228E9, 0.0, 2022-10-29 16:09:22.250
38.0, -2481.6760638472624, 5081.220684648026, -7051.353232556023, 19.355852220673114, 0.0, 0.03200000151991844, 0.9920000471174717, 0.0, 0.0, 0.0, 0.0, 0.0, 1.667052562265905E9, 0.0, 2022-10-29 16:09:22.265
38.0, -2570.0648594000377, 4888.039892336819, -6980.210985648911, 75.23182750865817, 0.0, 0.03200000151991844, 0.9920000471174717, 0.0, 0.0, 0.0, 0.0, 0.0, 1.667052562265905E9, 0.0, 2022-10-29 16:09:22.265
39.0, -2430.942450998351, 4864.987149009947, -7215.637687859591, 33.43096570391208, 0.0, 0.03200000151991844, 0.9920000471174717, 0.0, 0.0, 0.0, 0.0, 0.0, 1.667052562266711E9, 0.0, 2022-10-29 16:09:22.266
39.0, -2489.8514851504005, 4903.343562955502, -7388.849284357391, 271.9842242775485, 0.0, 0.03200000151991844, 0.9920000471174717, 0.0, 0.0, 0.0, 0.0, 0.0, 1.667052562266711E9, 0.0, 2022-10-29 16:09:22.266
40.0, -2483.4450365263037, 5095.207910482306, -7541.790623095352, 512.7926425244659, 0.0, 0.03200000151991844, 0.9920000471174717, 0.0, 0.0, 0.0, 0.0, 0.0, 1.6670525622802927E9, 0.0, 2022-10-29 16:09:22.280
40.0, -2581.011546570342, 4896.963293631095, -7459.626891018823, 570.9649163852446, 0.0, 0.03200000151991844, 0.9920000471174717, 0.0, 0.0, 0.0, 0.0, 0.0, 1.6670525622802927E9, 0.0, 2022-10-29 16:09:22.280
41.0, -2456.9534551901743, 4862.447756940033, -7698.187629392371, 535.7537583024241, 0.0, 0.01600000075995922, 0.9920000471174717, 0.0, 0.0, 0.0, 0.0, 0.0, 1.6670525622959237E9, 0.0, 2022-10-29 16:09:22.295
41.0, -2531.8131626532413, 4893.57494427124, -7908.353177352343, 755.7533731958829, 0.0, 0.01600000075995922, 0.9920000471174717, 0.0, 0.0, 0.0, 0.0, 0.0, 1.6670525622959237E9, 0.0, 2022-10-29 16:09:22.295
42.0, -2498.0680453530513, 5085.540269096848, -8023.03159964364, 528.675997636281, 0.0, 0.01600000075995922, 0.9920000471174717, 0.0, 0.0, 0.0, 0.0, 0.0, 1.6670525622966957E9, 0.0, 2022-10-29 16:09:22.296
42.0, -2531.7608040538616, 4923.400646417867, -7895.8132928009145, 622.5493564740755, 0.0, 0.01600000075995922, 0.9920000471174717, 0.0, 0.0, 0.0, 0.0, 0.0, 1.6670525622966957E9, 0.0, 2022-10-29 16:09:22.296
43.0, -2465.5253058886155, 4814.786471904721, -7708.99968016427, 529.1154358810745, 0.0, 0.01600000075995922, 0.9920000471174717, 0.0, 0.0, 0.0, 0.0, 0.0, 1.6670525623102956E9, 0.0, 2022-10-29 16:09:22.310
43.0, -2533.167006437201, 4882.976067796815, -7907.9941469565965, 735.501814935822, 0.0, 0.01600000075995922, 0.9920000471174717, 0.0, 0.0, 0.0, 0.0, 0.0, 1.6670525623102956E9, 0.0, 2022-10-29 16:09:22.310
44.0, -2494.152370099444, 5083.419745821971, -8038.20811366383, 522.1162131140009, 0.0, 0.01600000075995922, 0.9920000471174717, 0.0, 0.0, 0.0, 0.0, 0.0, 1.6670525623258908E9, 0.0, 2022-10-29 16:09:22.325
44.0, -2535.7774566062726, 4939.089526731987, -7910.952407821547, 616.6253549442627, 0.0, 0.01600000075995922, 0.9920000471174717, 0.0, 0.0, 0.0, 0.0, 0.0, 1.6670525623258908E9, 0.0, 2022-10-29 16:09:22.325
45.0, -2469.571877640672, 4814.098330312874, -7722.545597803779, 527.84386989614, 0.0, 0.01600000075995922, 0.9920000471174717, 0.0, 0.0, 0.0, 0.0, 0.0, 1.6670525623269148E9, 0.0, 2022-10-29 16:09:22.326
45.0, -2516.816163830925, 4892.0415852894075, -7902.309499023948, 754.7062012082897, 0.0, 0.01600000075995922, 0.9920000471174717, 0.0, 0.0, 0.0, 0.0, 0.0, 1.6670525623269148E9, 0.0, 2022-10-29 16:09:22.326
46.0, -2504.014486282598, 5072.996644645464, -8049.412853931077, 991.4194290037267, 0.0, 0.01600000075995922, 0.9920000471174717, 0.0, 0.0, 0.0, 0.0, 0.0, 1.6670525623402808E9, 0.0, 2022-10-29 16:09:22.340
46.0, -2538.8927932693623, 4962.441462055314, -7920.934200803284, 1109.923768949695, 0.0, 0.01600000075995922, 0.9920000471174717, 0.0, 0.0, 0.0, 0.0, 0.0, 1.6670525623402808E9, 0.0, 2022-10-29 16:09:22.340
47.0, -2442.1434513656422, 4865.013328309637, -7682.97745627258, 1057.520290770568, 0.0, 0.01600000075995922, 0.9920000471174717, 0.0, 0.0, 0.0, 0.0, 0.0, 1.6670525623558502E9, 0.0, 2022-10-29 16:09:22.355
47.0, -2537.725944483187, 4867.017914685886, -7914.68108807737, 1247.0920796245337, 0.0, 0.01600000075995922, 0.9920000471174717, 0.0, 0.0, 0.0, 0.0, 0.0, 1.6670525623558502E9, 0.0, 2022-10-29 16:09:22.355
48.0, -2509.912308512721, 5058.676567715127, -8043.298117503524, 1020.4709718595259, 0.0, 0.01600000075995922, 0.9920000471174717, 0.0, 0.0, 0.0, 0.0, 0.0, 1.6670525623566308E9, 0.0, 2022-10-29 16:09:22.356
48.0, -2482.467052687891, 5002.1554596847855, -7840.653508354444, 1163.8531263107434, 0.0, 0.01600000075995922, 0.9920000471174717, 0.0, 0.0, 0.0, 0.0, 0.0, 1.6670525623566308E9, 0.0, 2022-10-29 16:09:22.356
49.0, -2489.135294308886, 4788.906364211347, -7704.638956815936, 1027.7245078235865, 0.0, 0.01600000075995922, 0.9920000471174717, 0.0, 0.0, 0.0, 0.0, 0.0, 1.667052562370321E9, 0.0, 2022-10-29 16:09:22.370
49.0, -2527.7927702008747, 4854.126479538623, -7901.1202108380385, 1251.6248383708298, 0.0, 0.01600000075995922, 0.9920000471174717, 0.0, 0.0, 0.0, 0.0, 0.0, 1.667052562370321E9, 0.0, 2022-10-29 16:09:22.370
50.0, -2537.1630895398557, 5054.192427668255, -8063.549675763585, 1489.3141800547019, 0.0, 0.01600000075995922, 1.008000047877431, 0.0, 0.0, 0.0, 0.0, 0.0, 1.667052562385842E9, 0.0, 2022-10-29 16:09:22.385
50.0, -2478.497148884926, 5010.360800187569, -7840.533831555862, 1674.792648407165, 0.0, 0.01600000075995922, 1.008000047877431, 0.0, 0.0, 0.0, 0.0, 0.0, 1.667052562385842E9, 0.0, 2022-10-29 16:09:22.385
51.0, -2473.6558483922854, 4860.229996266309, -7722.343643206172, 1519.1903708507307, 0.0, 0.01600000075995922, 1.008000047877431, 0.0, 0.0, 0.0, 0.0, 0.0, 1.6670525623865683E9, 0.0, 2022-10-29 16:09:22.386
51.0, -2585.379749718588, 4808.984017123468, -7955.3076212960295, 1699.5059073143639, 0.0, 0.01600000075995922, 1.008000047877431, 0.0, 0.0, 0.0, 0.0, 0.0, 1.6670525623865683E9, 0.0, 2022-10-29 16:09:22.386
52.0, -2525.3580953297205, 4565.204248361755, -8068.276909307577, 1503.918489381671, 0.0, 0.01600000075995922, 1.008000047877431, 0.0, 0.0, 0.0, 0.0, 0.0, 1.6670525624002092E9, 0.0, 2022-10-29 16:09:22.400
52.0, -2447.607445200905, 4560.417176418472, -8309.425658450462, 1698.623290924821, 0.0, 0.01600000075995922, 1.008000047877431, 0.0, 0.0, 0.0, 0.0, 0.0, 1.6670525624002092E9, 0.0, 2022-10-29 16:09:22.400
53.0, -2473.9550403887406, 4369.532682680059, -8195.31570095243, 1540.317065700423, 0.0, 0.01600000075995922, 1.008000047877431, 0.0, 0.0, 0.0, 0.0, 0.0, 1.6670525624159236E9, 0.0, 2022-10-29 16:09:22.415
53.0, -2590.4136550589465, 4328.664925914258, -8440.101502802223, 1707.1203436241485, 0.0, 0.01600000075995922, 1.008000047877431, 0.0, 0.0, 0.0, 0.0, 0.0, 1.6670525624159236E9, 0.0, 2022-10-29 16:09:22.415
54.0, -2542.4868371267803, 4564.936845514923, -8559.832529933657, 1489.3777583539486, 0.0, 0.01600000075995922, 1.008000047877431, 0.0, 0.0, 0.0, 0.0, 0.0, 1.6670525624165933E9, 0.0, 2022-10-29 16:09:22.416
54.0, -2393.5696307411417, 4604.5180766959675, -8745.705557731446, 1256.049140018411, 0.0, 0.01600000075995922, 1.008000047877431, 0.0, 0.0, 0.0, 0.0, 0.0, 1.6670525624165933E9, 0.0, 2022-10-29 16:09:22.416
55.0, -2493.3352019591257, 4803.92393248342, -8717.587119914591, 1041.4723800607026, 0.0, 0.01600000075995922, 1.008000047877431, 0.0, 0.0, 0.0, 0.0, 0.0, 1.667052562446573E9, 0.0, 2022-10-29 16:09:22.446
55.0, -2592.5341783338226, 4807.416999042034, -8946.885996047873, 1213.9715256169438, 0.0, 0.01600000075995922, 1.008000047877431, 0.0, 0.0, 0.0, 0.0, 0.0, 1.667052562446573E9, 0.0, 2022-10-29 16:09:22.446
56.0, -2547.5731010665186, 5011.67911492195, -9076.557677261531, 970.924777246546, 0.0, 0.01600000075995922, 1.008000047877431, 0.0, 0.0, 0.0, 0.0, 0.0, 1.6670525624473083E9, 0.0, 2022-10-29 16:09:22.447
56.0, -2358.672624254599, 5140.748672242742, -9203.534760557115, 779.6513339127414, 0.0, 0.01600000075995922, 1.008000047877431, 0.0, 0.0, 0.0, 0.0, 0.0, 1.6670525624473083E9, 0.0, 2022-10-29 16:09:22.447
57.0, -2495.938172328286, 5303.424970565364, -9223.812498116866, 1017.0620530499145, 0.0, 0.01600000075995922, 1.008000047877431, 0.0, 0.0, 0.0, 0.0, 0.0, 1.667052562448035E9, 0.0, 2022-10-29 16:09:22.448
57.0, -2596.9397804816253, 5303.191226818133, -9437.680547032971, 1206.3309100074694, 0.0, 0.01600000075995922, 1.008000047877431, 0.0, 0.0, 0.0, 0.0, 0.0, 1.667052562448035E9, 0.0, 2022-10-29 16:09:22.448
58.0, -2546.869999874849, 5532.903361896519, -9545.66828830354, 969.2717414661311, 0.0, 0.01600000075995922, 1.008000047877431, 0.0, 0.0, 0.0, 0.0, 0.0, 1.6670525624601698E9, 0.0, 2022-10-29 16:09:22.460
58.0, -2420.2986957244575, 5557.865324150771, -9740.281462297775, 746.8112724018283, 0.0, 0.01600000075995922, 1.008000047877431, 0.0, 0.0, 0.0, 0.0, 0.0, 1.6670525624601698E9, 0.0, 2022-10-29 16:09:22.460
59.0, -2482.7101461850107, 5768.595597004052, -9683.264817523304, 550.2346509308554, 0.0, 0.01600000075995922, 1.008000047877431, 0.0, 0.0, 0.0, 0.0, 0.0, 1.6670525624759068E9, 0.0, 2022-10-29 16:09:22.475
59.0, -2604.348522293847, 5769.612849792, -9924.464055315591, 724.8543197619729, 0.0, 0.01600000075995922, 1.008000047877431, 0.0, 0.0, 0.0, 0.0, 0.0, 1.6670525624759068E9, 0.0, 2022-10-29 16:09:22.475
60.0, -2557.614732447546, 5991.373957564589, -10049.920869279187, 502.455559046939, 0.0, 0.01600000075995922, 0.9920000471174717, 0.0, 0.0, 0.0, 0.0, 0.0, 1.667052562476624E9, 0.0, 2022-10-29 16:09:22.476
60.0, -2317.683320740238, 6120.473434085026, -10130.171642528381, 335.0576370302588, 0.0, 0.01600000075995922, 0.9920000471174717, 0.0, 0.0, 0.0, 0.0, 0.0, 1.667052562476624E9, 0.0, 2022-10-29 16:09:22.476
61.0, -2512.9509772267193, 6204.069547844585, -10206.069172229152, 522.2788987620734, 0.0, 0.03200000151991844, 0.9920000471174717, 0.0, 0.0, 0.0, 0.0, 0.0, 1.6670525624902024E9, 0.0, 2022-10-29 16:09:22.490
61.0, -2650.7045822446235, 6218.935650168452, -9973.391296485905, 685.9182213232853, 0.0, 0.03200000151991844, 0.9920000471174717, 0.0, 0.0, 0.0, 0.0, 0.0, 1.6670525624902024E9, 0.0, 2022-10-29 16:09:22.490
62.0, -2573.086698564235, 6008.57936731074, -10056.871473346837, 495.5704032285139, 0.0, 0.03200000151991844, 0.9920000471174717, 0.0, 0.0, 0.0, 0.0, 0.0, 1.6670525625059536E9, 0.0, 2022-10-29 16:09:22.505
62.0, -2770.011130731087, 6215.322906811256, -10093.328018114902, 369.64423182047904, 0.0, 0.03200000151991844, 0.9920000471174717, 0.0, 0.0, 0.0, 0.0, 0.0, 1.6670525625059536E9, 0.0, 2022-10-29 16:09:22.505
63.0, -2538.9769410183653, 6229.618674391881, -10223.584993671626, 496.099599072244, 0.0, 0.03200000151991844, 0.9920000471174717, 0.0, 0.0, 0.0, 0.0, 0.0, 1.667052562506646E9, 0.0, 2022-10-29 16:09:22.506
63.0, -2637.551354100462, 6244.791448512115, -10451.081238026265, 696.9097872930579, 0.0, 0.03200000151991844, 0.9920000471174717, 0.0, 0.0, 0.0, 0.0, 0.0, 1.667052562506646E9, 0.0, 2022-10-29 16:09:22.506
64.0, -2567.9443361251615, 6475.707831376232, -10547.47902933415, 481.3064247975126, 0.0, 0.03200000151991844, 0.9920000471174717, 0.0, 0.0, 0.0, 0.0, 0.0, 1.6670525625202656E9, 0.0, 2022-10-29 16:09:22.520
64.0, -2801.239295361098, 6678.905945718754, -10606.629287033342, 353.5738817108795, 0.0, 0.03200000151991844, 0.9920000471174717, 0.0, 0.0, 0.0, 0.0, 0.0, 1.6670525625202656E9, 0.0, 2022-10-29 16:09:22.520
65.0, -3019.4325385759585, 6787.738904379308, -10688.809848659672, 525.4765132241882, 0.0, 0.03200000151991844, 0.9920000471174717, 0.0, 0.0, 0.0, 0.0, 0.0, 1.6670525625359025E9, 0.0, 2022-10-29 16:09:22.535
65.0, -3162.852092026733, 6714.064745202195, -10481.107024820521, 673.8196449666284, 0.0, 0.03200000151991844, 0.9920000471174717, 0.0, 0.0, 0.0, 0.0, 0.0, 1.6670525625359025E9, 0.0, 2022-10-29 16:09:22.535
66.0, -3061.6653588255867, 6496.804607026279, -10552.645701122936, 504.7855167193338, 0.0, 0.03200000151991844, 0.9920000471174717, 0.0, 0.0, 0.0, 0.0, 0.0, 1.66705256253672E9, 0.0, 2022-10-29 16:09:22.536
66.0, -3287.3346620518714, 6637.722167406697, -10603.672896118369, 363.6454322915524, 0.0, 0.03200000151991844, 0.9920000471174717, 0.0, 0.0, 0.0, 0.0, 0.0, 1.66705256253672E9, 0.0, 2022-10-29 16:09:22.536
67.0, -3503.4821799909696, 6761.469847090542, -10687.783246121835, 548.4507186519913, 0.0, 0.03200000151991844, 0.9920000471174717, 0.0, 0.0, 0.0, 0.0, 0.0, 1.6670525625501804E9, 0.0, 2022-10-29 16:09:22.550
67.0, -3656.101887332741, 6699.494094974827, -10479.392280690838, 681.3817226770334, 0.0, 0.03200000151991844, 0.9920000471174717, 0.0, 0.0, 0.0, 0.0, 0.0, 1.6670525625501804E9, 0.0, 2022-10-29 16:09:22.550
68.0, -3565.2484977091663, 6462.980951827019, -10555.598352137953, 472.846771097742, 0.0, 0.03200000151991844, 0.9920000471174717, 0.0, 0.0, 0.0, 0.0, 0.0, 1.6670525625659616E9, 0.0, 2022-10-29 16:09:22.565
68.0, -3738.9444112512283, 6689.127092297655, -10564.652649930678, 408.2998377624899, 0.0, 0.03200000151991844, 0.9920000471174717, 0.0, 0.0, 0.0, 0.0, 0.0, 1.6670525625659616E9, 0.0, 2022-10-29 16:09:22.565
69.0, -3536.3484208015725, 6684.785068449099, -10703.331880187616, 528.6367286867462, 0.0, 0.03200000151991844, 0.9920000471174717, 0.0, 0.0, 0.0, 0.0, 0.0, 1.6670525625665934E9, 0.0, 2022-10-29 16:09:22.566
69.0, -3685.710675281938, 6662.50087456312, -10510.094989377074, 660.3560051261447, 0.0, 0.03200000151991844, 0.9920000471174717, 0.0, 0.0, 0.0, 0.0, 0.0, 1.6670525625665934E9, 0.0, 2022-10-29 16:09:22.566
70.0, -3564.395800519269, 6451.44897031365, -10560.405993530992, 509.0190834691748, 0.0, 0.03200000151991844, 0.9920000471174717, 0.0, 0.0, 0.0, 0.0, 0.0, 1.6670525625803032E9, 0.0, 2022-10-29 16:09:22.580
70.0, -3679.2182089588605, 6246.603430040646, -10512.593242547475, 449.2854013768956, 0.0, 0.03200000151991844, 0.9920000471174717, 0.0, 0.0, 0.0, 0.0, 0.0, 1.6670525625803032E9, 0.0, 2022-10-29 16:09:22.580
71.0, -3528.1580398986116, 6243.656388875563, -10724.955981731415, 515.8687102380209, 0.0, 0.03200000151991844, 0.9920000471174717, 0.0, 0.0, 0.0, 0.0, 0.0, 1.667052562595963E9, 0.0, 2022-10-29 16:09:22.595
71.0, -3688.545519448351, 6147.756004261784, -10512.492265248671, 666.6278173518367, 0.0, 0.03200000151991844, 0.9920000471174717, 0.0, 0.0, 0.0, 0.0, 0.0, 1.667052562595963E9, 0.0, 2022-10-29 16:09:22.595
72.0, -3580.7653426253237, 5954.707978399005, -10582.800514465664, 478.98768682498485, 0.0, 0.03200000151991844, 0.9920000471174717, 0.0, 0.0, 0.0, 0.0, 0.0, 1.667052562596692E9, 0.0, 2022-10-29 16:09:22.596
72.0, -3687.812499057036, 5767.447447717655, -10528.143746563233, 441.77942216582596, 0.0, 0.03200000151991844, 0.9920000471174717, 0.0, 0.0, 0.0, 0.0, 0.0, 1.667052562596692E9, 0.0, 2022-10-29 16:09:22.596
73.0, -3518.2847040155903, 5740.542607436422, -10709.936543509364, 548.286163053941, 0.0, 0.03200000151991844, 0.9920000471174717, 0.0, 0.0, 0.0, 0.0, 0.0, 1.6670525626102233E9, 0.0, 2022-10-29 16:09:22.610
73.0, -3714.4106675419025, 5661.064123528078, -10533.996689993888, 647.423431079369, 0.0, 0.03200000151991844, 0.9920000471174717, 0.0, 0.0, 0.0, 0.0, 0.0, 1.6670525626102233E9, 0.0, 2022-10-29 16:09:22.610
74.0, -3583.764742389787, 5469.930926442612, -10576.480083540548, 498.55484339315444, 0.0, 0.03200000151991844, 0.9920000471174717, 0.0, 0.0, 0.0, 0.0, 0.0, 1.6670525626259477E9, 0.0, 2022-10-29 16:09:22.625
74.0, -3665.6872509191744, 5298.497652373742, -10493.557151773013, 472.1212305063382, 0.0, 0.03200000151991844, 0.9920000471174717, 0.0, 0.0, 0.0, 0.0, 0.0, 1.6670525626259477E9, 0.0, 2022-10-29 16:09:22.625
75.0, -3540.009782858193, 5239.908379667904, -10710.47882900294, 538.371688271407, 0.0, 0.03200000151991844, 0.9920000471174717, 0.0, 0.0, 0.0, 0.0, 0.0, 1.6670525626266134E9, 0.0, 2022-10-29 16:09:22.626
75.0, -3714.418147341814, 5152.078699158505, -10538.103100145236, 647.3561128801666, 0.0, 0.03200000151991844, 0.9920000471174717, 0.0, 0.0, 0.0, 0.0, 0.0, 1.6670525626266134E9, 0.0, 2022-10-29 16:09:22.626
76.0, -3590.481602710206, 4969.154582475778, -10572.766362884548, 494.57932974025607, 0.0, 0.03200000151991844, 0.9920000471174717, 0.0, 0.0, 0.0, 0.0, 0.0, 1.6670525626403127E9, 0.0, 2022-10-29 16:09:22.640
76.0, -3628.8903752551414, 4846.253990131896, -10453.304608549923, 485.0725040528923, 0.0, 0.03200000151991844, 0.9920000471174717, 0.0, 0.0, 0.0, 0.0, 0.0, 1.6670525626403127E9, 0.0, 2022-10-29 16:09:22.640
77.0, -3523.4906447539106, 4767.110227269586, -10233.609795502853, 521.0073327771388, 0.0, 0.03200000151991844, 0.9920000471174717, 0.0, 0.0, 0.0, 0.0, 0.0, 1.6670525626559727E9, 0.0, 2022-10-29 16:09:22.655
77.0, -3718.662933791522, 4655.704217439517, -10055.631696511526, 631.8953664633445, 0.0, 0.03200000151991844, 0.9920000471174717, 0.0, 0.0, 0.0, 0.0, 0.0, 1.6670525626559727E9, 0.0, 2022-10-29 16:09:22.655
78.0, -3605.2766469349153, 4447.060808761511, -10098.934128148481, 468.3775906506926, 0.0, 0.03200000151991844, 0.9920000471174717, 0.0, 0.0, 0.0, 0.0, 0.0, 1.6670525626566164E9, 0.0, 2022-10-29 16:09:22.656
78.0, -3610.770559969824, 4365.863840823527, -9929.477391206194, 510.05316580692306, 0.0, 0.03200000151991844, 0.9920000471174717, 0.0, 0.0, 0.0, 0.0, 0.0, 1.6670525626566164E9, 0.0, 2022-10-29 16:09:22.656
79.0, -3538.5699213752523, 4245.809312345926, -9732.648326488212, 534.8543123630807, 0.0, 0.03200000151991844, 0.9920000471174717, 0.0, 0.0, 0.0, 0.0, 0.0, 1.6670525626702762E9, 0.0, 2022-10-29 16:09:22.670
79.0, -3712.533237764146, 4173.7021712502465, -9554.688926996663, 638.5729578342289, 0.0, 0.03200000151991844, 0.9920000471174717, 0.0, 0.0, 0.0, 0.0, 0.0, 1.6670525626702762E9, 0.0, 2022-10-29 16:09:22.670
80.0, -3614.6450963239186, 3965.167219670955, -9627.51038898388, 471.6107341623865, 0.0, 0.03200000151991844, 0.9920000471174717, 0.0, 0.0, 0.0, 0.0, 0.0, 1.6670525626859317E9, 0.0, 2022-10-29 16:09:22.685
80.0, -3608.128320651129, 3902.5650343126617, -9450.73092792835, 525.0632542790845, 0.0, 0.03200000151991844, 0.9920000471174717, 0.0, 0.0, 0.0, 0.0, 0.0, 1.6670525626859317E9, 0.0, 2022-10-29 16:09:22.685
81.0, -3540.8942691977136, 3724.8524682181887, -9276.008411848452, 521.9404378160834, 0.0, 0.03200000151991844, 0.9920000471174717, 0.0, 0.0, 0.0, 0.0, 0.0, 1.6670525626866217E9, 0.0, 2022-10-29 16:09:22.686
81.0, -3771.0084435213357, 3604.0929685989395, -9128.963025390636, 598.7205839063972, 0.0, 0.03200000151991844, 0.9920000471174717, 0.0, 0.0, 0.0, 0.0, 0.0, 1.6670525626866217E9, 0.0, 2022-10-29 16:09:22.686
82.0, -3607.5897750575095, 3484.672353163827, -9124.73319854075, 478.3911727820523, 0.0, 0.03200000151991844, 0.9920000471174717, 0.0, 0.0, 0.0, 0.0, 0.0, 1.6670525627002237E9, 0.0, 2022-10-29 16:09:22.700
82.0, -3594.2028031661175, 3400.371268262621, -8951.334607045166, 529.8316267225891, 0.0, 0.03200000151991844, 0.9920000471174717, 0.0, 0.0, 0.0, 0.0, 0.0, 1.6670525627002237E9, 0.0, 2022-10-29 16:09:22.700
83.0, -3553.637978296727, 3252.2113916180097, -8773.672529600095, 526.1627848660573, 0.0, 0.03200000151991844, 0.9920000471174717, 0.0, 0.0, 0.0, 0.0, 0.0, 1.6670525627158992E9, 0.0, 2022-10-29 16:09:22.715
83.0, -3742.792768305633, 3189.491399411112, -8593.962856929284, 624.6044314997271, 0.0, 0.03200000151991844, 0.9920000471174717, 0.0, 0.0, 0.0, 0.0, 0.0, 1.6670525627158992E9, 0.0, 2022-10-29 16:09:22.715
84.0, -3611.1707292650826, 2991.3645894085057, -8645.575346267782, 454.8223232612945, 0.0, 0.03200000151991844, 0.9920000471174717, 0.0, 0.0, 0.0, 0.0, 0.0, 1.6670525627166126E9, 0.0, 2022-10-29 16:09:22.716
84.0, -3525.8056428264827, 2989.094470135402, -8881.667750670575, 580.0210841279477, 0.0, 0.03200000151991844, 0.9920000471174717, 0.0, 0.0, 0.0, 0.0, 0.0, 1.6670525627166126E9, 0.0, 2022-10-29 16:09:22.716
85.0, -3567.726181429811, 2745.8887760168873, -8774.936615785118, 492.26059176772833, 0.0, 0.03200000151991844, 0.9920000471174717, 0.0, 0.0, 0.0, 0.0, 0.0, 1.6670525627301924E9, 0.0, 2022-10-29 16:09:22.730
85.0, -3766.1409637290053, 2687.555686458014, -8623.534245878924, 589.3259552177042, 0.0, 0.03200000151991844, 0.9920000471174717, 0.0, 0.0, 0.0, 0.0, 0.0, 1.6670525627301924E9, 0.0, 2022-10-29 16:09:22.730
86.0, -3632.5442575118504, 2490.4162100437097, -8654.293053064495, 440.416228631977, 0.0, 0.03200000151991844, 0.9920000471174717, 0.0, 0.0, 0.0, 0.0, 0.0, 1.6670525627458613E9, 0.0, 2022-10-29 16:09:22.745
86.0, -3545.024988698773, 2516.414124585688, -8892.390043843538, 562.5333119351417, 0.0, 0.03200000151991844, 0.9920000471174717, 0.0, 0.0, 0.0, 0.0, 0.0, 1.6670525627458613E9, 0.0, 2022-10-29 16:09:22.745
87.0, -3562.224788594991, 2724.470368970651, -8781.810551903676, 481.80757139157504, 0.0, 0.03200000151991844, 0.9920000471174717, 0.0, 0.0, 0.0, 0.0, 0.0, 1.6670525627466395E9, 0.0, 2022-10-29 16:09:22.746
87.0, -3741.0873739258386, 2690.532646822743, -8590.806381366681, 596.8506339285523, 0.0, 0.03200000151991844, 0.9920000471174717, 0.0, 0.0, 0.0, 0.0, 0.0, 1.6670525627466395E9, 0.0, 2022-10-29 16:09:22.746
88.0, -3640.0726761226542, 2485.083112706896, -8668.721587093547, 421.6905495538376, 0.0, 0.03200000151991844, 0.9920000471174717, 0.0, 0.0, 0.0, 0.0, 0.0, 1.6670525627602055E9, 0.0, 2022-10-29 16:09:22.760
88.0, -3478.548266986385, 2571.8618813287467, -8839.571436769329, 593.1892718719319, 0.0, 0.03200000151991844, 0.9920000471174717, 0.0, 0.0, 0.0, 0.0, 0.0, 1.6670525627602055E9, 0.0, 2022-10-29 16:09:22.760
89.0, -3561.682503101416, 2740.9745474751107, -8788.725626921747, 442.71065725479275, 0.0, 0.03200000151991844, 0.9920000471174717, 0.0, 0.0, 0.0, 0.0, 0.0, 1.6670525627758687E9, 0.0, 2022-10-29 16:09:22.775
89.0, -3785.9773930939846, 2644.400980869308, -8640.090782982763, 565.7421460971236, 0.0, 0.03200000151991844, 0.9920000471174717, 0.0, 0.0, 0.0, 0.0, 0.0, 1.6670525627758687E9, 0.0, 2022-10-29 16:09:22.775
90.0, -3643.947212476749, 2460.7027048957534, -8672.521325448528, 433.54603241337463, 0.0, 0.03200000151991844, 0.9920000471174717, 0.0, 0.0, 0.0, 0.0, 0.0, 1.6670525627766824E9, 0.0, 2022-10-29 16:09:22.776
90.0, -3481.465388951823, 2515.8680991921574, -8850.705118937418, 579.8714881297201, 0.0, 0.03200000151991844, 0.9920000471174717, 0.0, 0.0, 0.0, 0.0, 0.0, 1.6670525627766824E9, 0.0, 2022-10-29 16:09:22.776
91.0, -3550.1075127385557, 2275.194317343645, -8764.154484212864, 453.53766762651503, 0.0, 0.01600000075995922, 0.9920000471174717, 0.0, 0.0, 0.0, 0.0, 0.0, 1.6670525627902193E9, 0.0, 2022-10-29 16:09:22.790
91.0, -3775.2438802211545, 2154.7003506212495, -8629.297431710642, 553.8230849383399, 0.0, 0.01600000075995922, 0.9920000471174717, 0.0, 0.0, 0.0, 0.0, 0.0, 1.6670525627902193E9, 0.0, 2022-10-29 16:09:22.790
92.0, -3650.727651096415, 1990.1503624208272, -8667.300425110385, 430.71866804687306, 0.0, 0.01600000075995922, 0.9920000471174717, 0.0, 0.0, 0.0, 0.0, 0.0, 1.6670525628059275E9, 0.0, 2022-10-29 16:09:22.805
92.0, -3877.6049420083873, 2140.5635287887417, -8739.817085251212, 647.9002683237195, 0.0, 0.01600000075995922, 0.9920000471174717, 0.0, 0.0, 0.0, 0.0, 0.0, 1.6670525628059275E9, 0.0, 2022-10-29 16:09:22.805
93.0, -4088.778393006418, 2206.6344713559374, -8811.24917440489, 412.4548666132614, 0.0, 0.01600000075995922, 0.9920000471174717, 0.0, 0.0, 0.0, 0.0, 0.0, 1.6670525628065984E9, 0.0, 2022-10-29 16:09:22.806
93.0, -4317.916453441605, 2110.7789655416273, -8679.33916306775, 509.88300035893917, 0.0, 0.01600000075995922, 0.9920000471174717, 0.0, 0.0, 0.0, 0.0, 0.0, 1.6670525628065984E9, 0.0, 2022-10-29 16:09:22.806
94.0, -4145.53324478399, 1918.0712705748156, -8683.185650172178, 432.72699432307854, 0.0, 0.01600000075995922, 0.9920000471174717, 0.0, 0.0, 0.0, 0.0, 0.0, 1.6670525628202772E9, 0.0, 2022-10-29 16:09:22.820
94.0, -4389.060570298694, 2109.948707751464, -8780.093937824015, 636.4935734588653, 0.0, 0.01600000075995922, 0.9920000471174717, 0.0, 0.0, 0.0, 0.0, 0.0, 1.6670525628202772E9, 0.0, 2022-10-29 16:09:22.820
95.0, -4549.539677397348, 2213.4597887750715, -8801.32160997251, 415.0952359819785, 0.0, 0.01600000075995922, 0.9920000471174717, 0.0, 0.0, 0.0, 0.0, 0.0, 1.667052562835879E9, 0.0, 2022-10-29 16:09:22.835
95.0, -4313.63426799234, 2108.3255911706947, -8684.273961059283, 494.21655944455415, 0.0, 0.01600000075995922, 0.9920000471174717, 0.0, 0.0, 0.0, 0.0, 0.0, 1.667052562835879E9, 0.0, 2022-10-29 16:09:22.835
96.0, -4139.179154759273, 1959.4158645849675, -8671.060894515831, 436.38835637969896, 0.0, 0.01600000075995922, 0.9920000471174717, 0.0, 0.0, 0.0, 0.0, 0.0, 1.6670525628367078E9, 0.0, 2022-10-29 16:09:22.836
96.0, -4381.719146685675, 2145.9901236244477, -8757.620878990274, 647.7992910249159, 0.0, 0.01600000075995922, 0.9920000471174717, 0.0, 0.0, 0.0, 0.0, 0.0, 1.6670525628367078E9, 0.0, 2022-10-29 16:09:22.836
97.0, -4553.530150650069, 2283.885844840668, -8781.77315290412, 429.47889121156186, 0.0, 0.01600000075995922, 0.9920000471174717, 0.0, 0.0, 0.0, 0.0, 0.0, 1.667052562850397E9, 0.0, 2022-10-29 16:09:22.850
97.0, -4794.258161047939, 2113.2472995123826, -8670.582187321503, 513.3648472176865, 0.0, 0.01600000075995922, 0.9920000471174717, 0.0, 0.0, 0.0, 0.0, 0.0, 1.667052562850397E9, 0.0, 2022-10-29 16:09:22.850
98.0, -4646.184302102309, 1945.2528634527698, -8682.877108425833, 422.08697894914076, 0.0, 0.01600000075995922, 0.9920000471174717, 0.0, 0.0, 0.0, 0.0, 0.0, 1.6670525628658595E9, 0.0, 2022-10-29 16:09:22.865
98.0, -4855.801954718772, 2166.8699850770645, -8736.716708187945, 641.284385302104, 0.0, 0.01600000075995922, 0.9920000471174717, 0.0, 0.0, 0.0, 0.0, 0.0, 1.6670525628658595E9, 0.0, 2022-10-29 16:09:22.865
99.0, -5045.426102172118, 2211.668376696296, -8806.514461060986, 881.5897870049812, 0.0, 0.01600000075995922, 0.9920000471174717, 0.0, 0.0, 0.0, 0.0, 0.0, 1.66705256286662E9, 0.0, 2022-10-29 16:09:22.866
99.0, -5284.093427694403, 2109.3316242587753, -8672.940194243565, 997.1900946353562, 0.0, 0.01600000075995922, 0.9920000471174717, 0.0, 0.0, 0.0, 0.0, 0.0, 1.66705256286662E9, 0.0, 2022-10-29 16:09:22.866
100.0, -5133.932704573497, 1951.7415898758918, -8687.475315421354, 896.8878477737308, 0.0, 0.01600000075995922, 0.9920000471174717, 0.0, 0.0, 0.0, 0.0, 0.0, 1.6670525628809593E9, 0.0, 2022-10-29 16:09:22.880
100.0, -5305.781107537448, 1709.407292447053, -8700.377970268484, 686.5558742657304, 0.0, 0.01600000075995922, 0.9920000471174717, 0.0, 0.0, 0.0, 0.0, 0.0, 1.6670525628809593E9, 0.0, 2022-10-29 16:09:22.880
0.0, -12423.869114902802, -12476.820488425437, -12233.919596153311, -10391.399914533366, 0.0, 0.01600000075995922, 0.9920000471174717, 0.0, 0.0, 0.0, 0.0, 0.0, 1.6670525628816628E9, 0.0, 2022-10-29 16:09:22.881
1.0, -12663.325559315737, -12654.953793264925, -12133.357426244766, -10304.514558762778, 0.0, 0.01600000075995922, 0.9920000471174717, 0.0, 0.0, 0.0, 0.0, 0.0, 1.667052562895403E9, 0.0, 2022-10-29 16:09:22.895
1.0, -12482.460257558618, -12752.529653058853, -12130.975109972991, -10360.528910349123, 0.0, 0.01600000075995922, 0.9920000471174717, 0.0, 0.0, 0.0, 0.0, 0.0, 1.667052562895403E9, 0.0, 2022-10-29 16:09:22.895
2.0, -12618.379441648256, -12517.280596096069, -12106.435756413732, -10559.18491619546, 0.0, 0.01600000075995922, 0.9920000471174717, 0.0, 0.0, 0.0, 0.0, 0.0, 1.6670525629108508E9, 0.0, 2022-10-29 16:09:22.910
2.0, -12411.288091451861, -12521.387006247416, -12249.610346417408, -10374.342230835464, 0.0, 0.01600000075995922, 0.9920000471174717, 0.0, 0.0, 0.0, 0.0, 0.0, 1.6670525629108508E9, 0.0, 2022-10-29 16:09:22.910
3.0, -12196.191485400312, -12667.8695377619, -12166.876279597636, -10324.683839223813, 0.0, 0.01600000075995922, 0.9920000471174717, 0.0, 0.0, 0.0, 0.0, 0.0, 1.6670525629116023E9, 0.0, 2022-10-29 16:09:22.911
3.0, -12003.541758882813, -12755.347667675465, -12128.119696356822, -10365.158906494267, 0.0, 0.01600000075995922, 0.9920000471174717, 0.0, 0.0, 0.0, 0.0, 0.0, 1.6670525629116023E9, 0.0, 2022-10-29 16:09:22.911
4.0, -12093.13480222132, -12916.118486970663, -12077.401043107733, -10532.272596114315, 0.0, 0.01600000075995922, 0.9920000471174717, 0.0, 0.0, 0.0, 0.0, 0.0, 1.6670525629252188E9, 0.0, 2022-10-29 16:09:22.925
4.0, -11958.376857067924, -13021.202195925638, -12285.00288964808, -10382.513912238646, 0.0, 0.01600000075995922, 0.9920000471174717, 0.0, 0.0, 0.0, 0.0, 0.0, 1.6670525629252188E9, 0.0, 2022-10-29 16:09:22.925
5.0, -11725.994433421176, -13159.187674740795, -12166.642535850406, -10308.965039710049, 0.0, 0.01600000075995922, 0.9920000471174717, 0.0, 0.0, 0.0, 0.0, 0.0, 1.6670525629411845E9, 0.0, 2022-10-29 16:09:22.941
5.0, -11527.847053968813, -13279.262772668153, -12140.747468557209, -10371.026809524745, 0.0, 0.01600000075995922, 0.9920000471174717, 0.0, 0.0, 0.0, 0.0, 0.0, 1.6670525629411845E9, 0.0, 2022-10-29 16:09:22.941
6.0, -11628.057673281524, -13475.652399141341, -12087.743736435194, -10541.420391405933, 0.0, 0.01600000075995922, 0.9920000471174717, 0.0, 0.0, 0.0, 0.0, 0.0, 1.6670525629416149E9, 0.0, 2022-10-29 16:09:22.941
6.0, -11451.263252626173, -13518.17132173758, -12242.747629998717, -10360.452242400032, 0.0, 0.01600000075995922, 0.9920000471174717, 0.0, 0.0, 0.0, 0.0, 0.0, 1.6670525629416149E9, 0.0, 2022-10-29 16:09:22.941
7.0, -11261.27259497717, -13688.686450367328, -12202.798018672038, -10337.115266676527, 0.0, 0.01600000075995922, 0.9920000471174717, 0.0, 0.0, 0.0, 0.0, 0.0, 1.667052562955227E9, 0.0, 2022-10-29 16:09:22.955
7.0, -11023.220482997596, -13767.323456785642, -12132.106429709587, -10346.739899212494, 0.0, 0.01600000075995922, 0.9920000471174717, 0.0, 0.0, 0.0, 0.0, 0.0, 1.667052562955227E9, 0.0, 2022-10-29 16:09:22.955
8.0, -11106.766108107753, -13949.15365273133, -12073.80325935036, -10521.81209593825, 0.0, 0.01600000075995922, 0.9920000471174717, 0.0, 0.0, 0.0, 0.0, 0.0, 1.6670525629709039E9, 0.0, 2022-10-29 16:09:22.970
8.0, -10929.545338857453, -13983.515853524208, -12243.609676938504, -10370.048825686332, 0.0, 0.01600000075995922, 0.9920000471174717, 0.0, 0.0, 0.0, 0.0, 0.0, 1.6670525629709039E9, 0.0, 2022-10-29 16:09:22.970
9.0, -10730.792095612269, -14135.29408337595, -12177.174094125628, -10315.551003532019, 0.0, 0.01600000075995922, 0.9920000471174717, 0.0, 0.0, 0.0, 0.0, 0.0, 1.6670525629716232E9, 0.0, 2022-10-29 16:09:22.971
9.0, -10552.021137830336, -14247.526611096226, -12149.61477135215, -10381.606986499391, 0.0, 0.01600000075995922, 0.9920000471174717, 0.0, 0.0, 0.0, 0.0, 0.0, 1.6670525629716232E9, 0.0, 2022-10-29 16:09:22.971
10.0, -10581.940337475855, -14381.82641850505, -12005.256503012497, -10493.605770472437, 0.0, 0.01600000075995922, 0.9920000471174717, 0.0, 0.0, 0.0, 0.0, 0.0, 1.6670525630017016E9, 0.0, 2022-10-29 16:09:23.001
10.0, -10484.16252308432, -14502.101601080038, -11761.77592624724, -10377.79041859461, 0.0, 0.01600000075995922, 0.9920000471174717, 0.0, 0.0, 0.0, 0.0, 0.0, 1.6670525630017016E9, 0.0, 2022-10-29 16:09:23.001
11.0, -10311.409064331092, -14663.113643922377, -11723.15397940483, -10357.056413240265, 0.0, 0.01600000075995922, 0.9920000471174717, 0.0, 0.0, 0.0, 0.0, 0.0, 1.667052563002468E9, 0.0, 2022-10-29 16:09:23.002
11.0, -10068.008895414881, -14754.3765525911, -11656.621159193106, -10370.323708333075, 0.0, 0.01600000075995922, 0.9920000471174717, 0.0, 0.0, 0.0, 0.0, 0.0, 1.667052563002468E9, 0.0, 2022-10-29 16:09:23.002
12.0, -10058.533858877141, -14809.057629843242, -11493.933641170617, -10463.58933342807, 0.0, 0.01600000075995922, 0.9920000471174717, 0.0, 0.0, 0.0, 0.0, 0.0, 1.6670525630032268E9, 0.0, 2022-10-29 16:09:23.003
12.0, -9989.134405349381, -14983.92039217148, -11293.996719589457, -10374.824677929748, 0.0, 0.01600000075995922, 0.9920000471174717, 0.0, 0.0, 0.0, 0.0, 0.0, 1.6670525630032268E9, 0.0, 2022-10-29 16:09:23.003
13.0, -9809.252697280608, -15160.815790125635, -11239.958905129693, -10345.219629880507, 0.0, 0.01600000075995922, 0.9920000471174717, 0.0, 0.0, 0.0, 0.0, 0.0, 1.6670525630152707E9, 0.0, 2022-10-29 16:09:23.015
13.0, -9589.387718785554, -15267.819937707856, -11186.452156463638, -10371.284862621687, 0.0, 0.01600000075995922, 0.9920000471174717, 0.0, 0.0, 0.0, 0.0, 0.0, 1.6670525630152707E9, 0.0, 2022-10-29 16:09:23.015
14.0, -9511.337876660284, -15241.623808468226, -10967.090194512624, -10406.327725206502, 0.0, 0.01600000075995922, 0.9920000471174717, 0.0, 0.0, 0.0, 0.0, 0.0, 1.6670525630309439E9, 0.0, 2022-10-29 16:09:23.030
14.0, -9502.966110609472, -15404.773204135243, -10830.469779181294, -10399.784770234022, 0.0, 0.01600000075995922, 0.9920000471174717, 0.0, 0.0, 0.0, 0.0, 0.0, 1.6670525630309439E9, 0.0, 2022-10-29 16:09:23.030
15.0, -9315.877615326084, -15640.807640088722, -10745.09908289276, -10346.300460967701, 0.0, 0.01600000075995922, 0.9920000471174717, 0.0, 0.0, 0.0, 0.0, 0.0, 1.66705256303176E9, 0.0, 2022-10-29 16:09:23.031
15.0, -9104.375053131953, -15758.691156642046, -10703.316920587793, -10402.894497047178, 0.0, 0.01600000075995922, 0.9920000471174717, 0.0, 0.0, 0.0, 0.0, 0.0, 1.66705256303176E9, 0.0, 2022-10-29 16:09:23.031
16.0, -9048.28964344645, -15780.820144679863, -10488.289502685424, -10426.463346567936, 0.0, 0.01600000075995922, 0.9920000471174717, 0.0, 0.0, 0.0, 0.0, 0.0, 1.6670525630452182E9, 0.0, 2022-10-29 16:09:23.045
16.0, -9017.010990167037, -15894.599121031817, -10308.413404466584, -10408.805408927146, 0.0, 0.01600000075995922, 0.9920000471174717, 0.0, 0.0, 0.0, 0.0, 0.0, 1.6670525630452182E9, 0.0, 2022-10-29 16:09:23.045
17.0, -8864.224857277237, -15680.29911367083, -10286.520030125976, -10368.93059559958, 0.0, 0.01600000075995922, 0.9920000471174717, 0.0, 0.0, 0.0, 0.0, 0.0, 1.6670525630609548E9, 0.0, 2022-10-29 16:09:23.060
17.0, -9103.823417888489, -15779.718744142912, -10203.647587007843, -10380.963723707013, 0.0, 0.01600000075995922, 0.9920000471174717, 0.0, 0.0, 0.0, 0.0, 0.0, 1.6670525630609548E9, 0.0, 2022-10-29 16:09:23.060
18.0, -9037.041894329712, -15763.526847284753, -9986.207933634054, -10426.313750569709, 0.0, 0.01600000075995922, 0.9920000471174717, 0.0, 0.0, 0.0, 0.0, 0.0, 1.6670525630617528E9, 0.0, 2022-10-29 16:09:23.061
18.0, -9034.96064000437, -15945.865669624414, -9843.210988878272, -10411.599114194047, 0.0, 0.01600000075995922, 0.9920000471174717, 0.0, 0.0, 0.0, 0.0, 0.0, 1.6670525630617528E9, 0.0, 2022-10-29 16:09:23.061
19.0, -8880.046504039783, -15702.106470312458, -9822.035675329156, -10382.353096540552, 0.0, 0.01600000075995922, 0.9920000471174717, 0.0, 0.0, 0.0, 0.0, 0.0, 1.667052563075216E9, 0.0, 2022-10-29 16:09:23.075
19.0, -9121.309320131317, -15796.092026148923, -9736.167572346516, -10391.992688676342, 0.0, 0.01600000075995922, 0.9920000471174717, 0.0, 0.0, 0.0, 0.0, 0.0, 1.667052563075216E9, 0.0, 2022-10-29 16:09:23.075
20.0, -9011.474068282638, -15761.7503948058, -9959.28626380302, -10394.090772551484, 0.0, 0.01600000075995922, 1.008000047877431, 0.0, 0.0, 0.0, 0.0, 0.0, 1.6670525630909483E9, 0.0, 2022-10-29 16:09:23.090
20.0, -9043.068743108306, -15997.921337107662, -9840.76696425723, -10412.124570137821, 0.0, 0.01600000075995922, 1.008000047877431, 0.0, 0.0, 0.0, 0.0, 0.0, 1.6670525630909483E9, 0.0, 2022-10-29 16:09:23.090
21.0, -8852.666696464177, -16182.861259866506, -9788.700077074114, -10374.400199284777, 0.0, 0.03200000151991844, 1.008000047877431, 0.0, 0.0, 0.0, 0.0, 0.0, 1.6670525630917077E9, 0.0, 2022-10-29 16:09:23.091
21.0, -8631.43291458534, -16274.457019631285, -9739.123963261489, -10407.088794847485, 0.0, 0.03200000151991844, 1.008000047877431, 0.0, 0.0, 0.0, 0.0, 0.0, 1.6670525630917077E9, 0.0, 2022-10-29 16:09:23.091
22.0, -8451.096808671951, -16158.750124852173, -9891.02373986179, -10347.839429799467, 0.0, 0.03200000151991844, 1.008000047877431, 0.0, 0.0, 0.0, 0.0, 0.0, 1.6670525631052783E9, 0.0, 2022-10-29 16:09:23.105
22.0, -8536.673199458048, -15949.863622677047, -9841.812266294844, -10419.376236151904, 0.0, 0.03200000151991844, 1.008000047877431, 0.0, 0.0, 0.0, 0.0, 0.0, 1.6670525631052783E9, 0.0, 2022-10-29 16:09:23.105
23.0, -8381.882480191998, -15719.870995101985, -9813.08609473519, -10387.501068829559, 0.0, 0.03200000151991844, 1.008000047877431, 0.0, 0.0, 0.0, 0.0, 0.0, 1.6670525631209805E9, 0.0, 2022-10-29 16:09:23.120
23.0, -8160.2896679174155, -15806.717081923038, -9757.567279892974, -10396.830249269027, 0.0, 0.03200000151991844, 1.008000047877431, 0.0, 0.0, 0.0, 0.0, 0.0, 1.6670525631209805E9, 0.0, 2022-10-29 16:09:23.120
24.0, -7918.312530934345, -15644.68778629275, -9846.748934236355, -10297.025409101509, 0.0, 0.03200000151991844, 1.008000047877431, 0.0, 0.0, 0.0, 0.0, 0.0, 1.6670525631217244E9, 0.0, 2022-10-29 16:09:23.121
24.0, -8077.856663044076, -15493.178829237819, -9878.066856465302, -10433.20264628809, 0.0, 0.03200000151991844, 1.008000047877431, 0.0, 0.0, 0.0, 0.0, 0.0, 1.6670525631217244E9, 0.0, 2022-10-29 16:09:23.121
25.0, -7914.883042674977, -15728.184792703483, -9828.213990055956, -10393.552226957865, 0.0, 0.03200000151991844, 1.008000047877431, 0.0, 0.0, 0.0, 0.0, 0.0, 1.6670525631352563E9, 0.0, 2022-10-29 16:09:23.135
25.0, -7698.963658633176, -15833.24045240879, -9773.039246009663, -10410.540722506586, 0.0, 0.03200000151991844, 1.008000047877431, 0.0, 0.0, 0.0, 0.0, 0.0, 1.6670525631352563E9, 0.0, 2022-10-29 16:09:23.135
26.0, -7914.587590578478, -15631.29894445138, -9839.067179727368, -10304.550087812357, 0.0, 0.03200000151991844, 1.008000047877431, 0.0, 0.0, 0.0, 0.0, 0.0, 1.6670525631509583E9, 0.0, 2022-10-29 16:09:23.150
26.0, -8058.39048377471, -15440.001191767864, -9851.57714507915, -10412.416282334365, 0.0, 0.03200000151991844, 1.008000047877431, 0.0, 0.0, 0.0, 0.0, 0.0, 1.6670525631509583E9, 0.0, 2022-10-29 16:09:23.150
27.0, -7903.064958814997, -15226.265909300186, -9801.862654968165, -10389.18402380962, 0.0, 0.03200000151991844, 1.008000047877431, 0.0, 0.0, 0.0, 0.0, 0.0, 1.6670525631517003E9, 0.0, 2022-10-29 16:09:23.151
27.0, -7697.890307345893, -15348.375512803439, -9785.549211361445, -10442.07929883292, 0.0, 0.03200000151991844, 1.008000047877431, 0.0, 0.0, 0.0, 0.0, 0.0, 1.6670525631517003E9, 0.0, 2022-10-29 16:09:23.151
28.0, -7872.809168173466, -15588.675304656383, -9804.79099663347, -10269.380068629049, 0.0, 0.03200000151991844, 1.008000047877431, 0.0, 0.0, 0.0, 0.0, 0.0, 1.6670525631653144E9, 0.0, 2022-10-29 16:09:23.165
28.0, -8091.5446968819015, -15463.809394885786, -9858.469780697487, -10402.565385851078, 0.0, 0.03200000151991844, 1.008000047877431, 0.0, 0.0, 0.0, 0.0, 0.0, 1.6670525631653144E9, 0.0, 2022-10-29 16:09:23.165
29.0, -7934.640934140887, -15289.545016550459, -9846.184209343046, -10410.387386608403, 0.0, 0.03200000151991844, 1.008000047877431, 0.0, 0.0, 0.0, 0.0, 0.0, 1.6670525631810153E9, 0.0, 2022-10-29 16:09:23.181
29.0, -7705.097094560508, -15339.736343905795, -9791.948180185631, -10428.778344640508, 0.0, 0.03200000151991844, 1.008000047877431, 0.0, 0.0, 0.0, 0.0, 0.0, 1.6670525631810153E9, 0.0, 2022-10-29 16:09:23.181
30.0, -7855.830022374634, -15095.171196153387, -9791.893951636273, -10243.905740080867, 0.0, 0.03200000151991844, 1.008000047877431, 0.0, 0.0, 0.0, 0.0, 0.0, 1.6670525631816225E9, 0.0, 2022-10-29 16:09:23.181
30.0, -8084.405227866489, -15012.379160884302, -9876.251135036815, -10422.250349267852, 0.0, 0.03200000151991844, 1.008000047877431, 0.0, 0.0, 0.0, 0.0, 0.0, 1.6670525631816225E9, 0.0, 2022-10-29 16:09:23.181
31.0, -7954.252969508525, -14783.287849198561, -9868.330026930664, -10423.916474698111, 0.0, 0.03200000151991844, 1.008000047877431, 0.0, 0.0, 0.0, 0.0, 0.0, 1.6670525631952684E9, 0.0, 2022-10-29 16:09:23.195
31.0, -7720.842073373962, -14867.871296546422, -9799.942216340918, -10426.857906013262, 0.0, 0.03200000151991844, 1.008000047877431, 0.0, 0.0, 0.0, 0.0, 0.0, 1.6670525631952684E9, 0.0, 2022-10-29 16:09:23.195
32.0, -7832.807198247407, -15049.035790299997, -9750.17723758053, -10214.06320838444, 0.0, 0.03200000151991844, 1.008000047877431, 0.0, 0.0, 0.0, 0.0, 0.0, 1.667052563211022E9, 0.0, 2022-10-29 16:09:23.211
32.0, -7606.459103179164, -15001.185640316922, -9861.787071958184, -10406.159429708496, 0.0, 0.03200000151991844, 1.008000047877431, 0.0, 0.0, 0.0, 0.0, 0.0, 1.667052563211022E9, 0.0, 2022-10-29 16:09:23.211
33.0, -7490.148214557208, -14820.754166954663, -9885.017460532952, -10443.3807840175, 0.0, 0.03200000151991844, 1.008000047877431, 0.0, 0.0, 0.0, 0.0, 0.0, 1.66705256321176E9, 0.0, 2022-10-29 16:09:23.211
33.0, -7713.149099165108, -14865.410442375578, -9787.29013479082, -10413.78321576817, 0.0, 0.03200000151991844, 1.008000047877431, 0.0, 0.0, 0.0, 0.0, 0.0, 1.66705256321176E9, 0.0, 2022-10-29 16:09:23.211
34.0, -7820.237394496333, -15073.524655209854, -9757.967449188232, -10207.993350756355, 0.0, 0.03200000151991844, 1.008000047877431, 0.0, 0.0, 0.0, 0.0, 0.0, 1.6670525632252085E9, 0.0, 2022-10-29 16:09:23.225
34.0, -7592.15398584865, -15028.621546391863, -9860.92315506842, -10435.300730163231, 0.0, 0.03200000151991844, 1.008000047877431, 0.0, 0.0, 0.0, 0.0, 0.0, 1.6670525632252085E9, 0.0, 2022-10-29 16:09:23.225
35.0, -7496.068476187065, -14829.670088449027, -9900.960654044058, -10448.594204555731, 0.0, 0.03200000151991844, 1.008000047877431, 0.0, 0.0, 0.0, 0.0, 0.0, 1.6670525632409396E9, 0.0, 2022-10-29 16:09:23.240
35.0, -7718.212923705112, -14843.857398930937, -9797.271927772556, -10445.422769393306, 0.0, 0.03200000151991844, 1.008000047877431, 0.0, 0.0, 0.0, 0.0, 0.0, 1.6670525632409396E9, 0.0, 2022-10-29 16:09:23.240
36.0, -7808.101419140119, -15018.061938866973, -9749.997722382657, -10216.01543616131, 0.0, 0.03200000151991844, 1.008000047877431, 0.0, 0.0, 0.0, 0.0, 0.0, 1.6670525632416148E9, 0.0, 2022-10-29 16:09:23.241
36.0, -7582.258210565895, -15014.103254763875, -9866.951873796992, -10392.082446275279, 0.0, 0.03200000151991844, 1.008000047877431, 0.0, 0.0, 0.0, 0.0, 0.0, 1.6670525632416148E9, 0.0, 2022-10-29 16:09:23.241
37.0, -7499.393247247674, -14823.031766027678, -9898.570857972372, -10460.32627071673, 0.0, 0.03200000151991844, 1.008000047877431, 0.0, 0.0, 0.0, 0.0, 0.0, 1.6670525632552533E9, 0.0, 2022-10-29 16:09:23.255
37.0, -7721.085166871082, -14887.445932914503, -9799.46350914659, -10453.482253797818, 0.0, 0.03200000151991844, 1.008000047877431, 0.0, 0.0, 0.0, 0.0, 0.0, 1.6670525632552533E9, 0.0, 2022-10-29 16:09:23.255
38.0, -7779.846474974882, -15039.521484812722, -9728.986964431591, -10691.90087597305, 0.0, 0.03200000151991844, 1.008000047877431, 0.0, 0.0, 0.0, 0.0, 0.0, 1.6670525632708712E9, 0.0, 2022-10-29 16:09:23.270
38.0, -7595.523635708727, -15005.815636462066, -9873.425640620291, -10918.755727485288, 0.0, 0.03200000151991844, 1.008000047877431, 0.0, 0.0, 0.0, 0.0, 0.0, 1.6670525632708712E9, 0.0, 2022-10-29 16:09:23.270
39.0, -7519.375532710925, -14857.891373514663, -9934.810488543008, -10963.09411140997, 0.0, 0.03200000151991844, 1.008000047877431, 0.0, 0.0, 0.0, 0.0, 0.0, 1.6670525632717128E9, 0.0, 2022-10-29 16:09:23.271
39.0, -7722.233316157479, -14871.41298180446, -9807.65389004955, -10921.663499700837, 0.0, 0.03200000151991844, 1.008000047877431, 0.0, 0.0, 0.0, 0.0, 0.0, 1.6670525632717128E9, 0.0, 2022-10-29 16:09:23.271
40.0, -7768.544497308787, -14983.864293672144, -9698.46190099325, -11152.134834470227, 0.0, 0.03200000151991844, 1.008000047877431, 0.0, 0.0, 0.0, 0.0, 0.0, 1.6670525632852883E9, 0.0, 2022-10-29 16:09:23.285
40.0, -7611.665043917485, -14989.081454110332, -9874.17362061143, -10927.454734782223, 0.0, 0.03200000151991844, 1.008000047877431, 0.0, 0.0, 0.0, 0.0, 0.0, 1.6670525632852883E9, 0.0, 2022-10-29 16:09:23.285
41.0, -7553.988306800835, -14857.93812226411, -9945.26350891916, -10985.739205641672, 0.0, 0.01600000075995922, 1.008000047877431, 0.0, 0.0, 0.0, 0.0, 0.0, 1.6670525633009324E9, 0.0, 2022-10-29 16:09:23.300
41.0, -7736.527213788126, -14864.144486240577, -9813.824724976439, -10922.617174189538, 0.0, 0.01600000075995922, 1.008000047877431, 0.0, 0.0, 0.0, 0.0, 0.0, 1.6670525633009324E9, 0.0, 2022-10-29 16:09:23.300
42.0, -7747.593577757012, -14967.380684617441, -9667.237476263195, -11140.810417404398, 0.0, 0.01600000075995922, 1.008000047877431, 0.0, 0.0, 0.0, 0.0, 0.0, 1.6670525633017657E9, 0.0, 2022-10-29 16:09:23.301
42.0, -7618.47166183684, -15036.022808404174, -9862.478953449987, -10912.001468165312, 0.0, 0.01600000075995922, 1.008000047877431, 0.0, 0.0, 0.0, 0.0, 0.0, 1.6670525633017657E9, 0.0, 2022-10-29 16:09:23.301
43.0, -7559.108229840174, -14872.589180340525, -9955.237822100986, -10982.298497682437, 0.0, 0.01600000075995922, 1.008000047877431, 0.0, 0.0, 0.0, 0.0, 0.0, 1.6670525633151958E9, 0.0, 2022-10-29 16:09:23.315
43.0, -7736.807706284802, -14861.283462774474, -9816.573551443871, -10935.74422303401, 0.0, 0.01600000075995922, 1.008000047877431, 0.0, 0.0, 0.0, 0.0, 0.0, 1.6670525633151958E9, 0.0, 2022-10-29 16:09:23.315
44.0, -7742.671869415324, -14986.75710628787, -9666.784948368557, -11130.398535927758, 0.0, 0.01600000075995922, 1.008000047877431, 0.0, 0.0, 0.0, 0.0, 0.0, 1.6670525633308747E9, 0.0, 2022-10-29 16:09:23.330
44.0, -7605.834539886564, -15054.367017686833, -9893.692158480175, -10909.204022998456, 0.0, 0.01600000075995922, 1.008000047877431, 0.0, 0.0, 0.0, 0.0, 0.0, 1.6670525633308747E9, 0.0, 2022-10-29 16:09:23.330
45.0, -7577.3776411237195, -14912.81180436397, -9974.711481170263, -10990.081229490228, 0.0, 0.01600000075995922, 1.008000047877431, 0.0, 0.0, 0.0, 0.0, 0.0, 1.667052563331643E9, 0.0, 2022-10-29 16:09:23.331
45.0, -7736.542173387948, -14868.695944486652, -9814.50912666833, -10923.017343484797, 0.0, 0.01600000075995922, 1.008000047877431, 0.0, 0.0, 0.0, 0.0, 0.0, 1.667052563331643E9, 0.0, 2022-10-29 16:09:23.331
46.0, -7714.489853299223, -14936.653666581493, -9651.95250514429, -11111.717735649087, 0.0, 0.01600000075995922, 1.008000047877431, 0.0, 0.0, 0.0, 0.0, 0.0, 1.667052563345237E9, 0.0, 2022-10-29 16:09:23.345
46.0, -7612.942219752353, -15050.571019231807, -9871.559430542402, -10883.836281599011, 0.0, 0.01600000075995922, 1.008000047877431, 0.0, 0.0, 0.0, 0.0, 0.0, 1.667052563345237E9, 0.0, 2022-10-29 16:09:23.345
47.0, -7549.629453402478, -14870.472396965604, -9938.75608299626, -10962.447108717635, 0.0, 0.01600000075995922, 1.008000047877431, 0.0, 0.0, 0.0, 0.0, 0.0, 1.667052563360902E9, 0.0, 2022-10-29 16:09:23.360
47.0, -7761.002989048138, -14897.663339593448, -9828.040084708016, -10937.995642807335, 0.0, 0.01600000075995922, 1.008000047877431, 0.0, 0.0, 0.0, 0.0, 0.0, 1.667052563360902E9, 0.0, 2022-10-29 16:09:23.360
48.0, -7679.026251969393, -14905.255336503498, -9611.860777619295, -11062.553010831587, 0.0, 0.01600000075995922, 1.008000047877431, 0.0, 0.0, 0.0, 0.0, 0.0, 1.6670525633616114E9, 0.0, 2022-10-29 16:09:23.361
48.0, -7626.605944240466, -15042.199253180996, -9396.148958025035, -10914.308986437973, 0.0, 0.01600000075995922, 1.008000047877431, 0.0, 0.0, 0.0, 0.0, 0.0, 1.6670525633616114E9, 0.0, 2022-10-29 16:09:23.361
49.0, -7563.760665385053, -14868.742693236098, -9468.057884423062, -10973.146962490864, 0.0, 0.01600000075995922, 1.008000047877431, 0.0, 0.0, 0.0, 0.0, 0.0, 1.6670525633752272E9, 0.0, 2022-10-29 16:09:23.375
49.0, -7785.3740471093915, -14910.403308792505, -9354.967049662955, -10955.187962903641, 0.0, 0.01600000075995922, 1.008000047877431, 0.0, 0.0, 0.0, 0.0, 0.0, 1.6670525633752272E9, 0.0, 2022-10-29 16:09:23.375
50.0, -7673.362173486501, -14854.811565901153, -9580.542855390348, -11041.557212480344, 0.0, 0.01600000075995922, 0.9920000471174717, 0.0, 0.0, 0.0, 0.0, 0.0, 1.667052563390952E9, 0.0, 2022-10-29 16:09:23.390
50.0, -7617.463758798782, -15079.295320841484, -9414.388450108934, -10930.723407343496, 0.0, 0.01600000075995922, 0.9920000471174717, 0.0, 0.0, 0.0, 0.0, 0.0, 1.667052563390952E9, 0.0, 2022-10-29 16:09:23.390
51.0, -7595.521765758749, -14920.226156026125, -9499.656299148686, -10999.999444172718, 0.0, 0.01600000075995922, 0.9920000471174717, 0.0, 0.0, 0.0, 0.0, 0.0, 1.6670525633917441E9, 0.0, 2022-10-29 16:09:23.391
51.0, -7779.5491529284045, -14917.570827057585, -9354.002155474387, -10965.356750883162, 0.0, 0.01600000075995922, 0.9920000471174717, 0.0, 0.0, 0.0, 0.0, 0.0, 1.6670525633917441E9, 0.0, 2022-10-29 16:09:23.391
52.0, -7626.218864595052, -14790.154305517208, -9538.409142489545, -11014.51399590075, 0.0, 0.01600000075995922, 0.9920000471174717, 0.0, 0.0, 0.0, 0.0, 0.0, 1.6670525634053385E9, 0.0, 2022-10-29 16:09:23.405
52.0, -7660.539926488418, -14575.46347861085, -9418.681855258066, -10944.830309976358, 0.0, 0.01600000075995922, 0.9920000471174717, 0.0, 0.0, 0.0, 0.0, 0.0, 1.6670525634053385E9, 0.0, 2022-10-29 16:09:23.405
53.0, -7594.272639173549, -14402.036837865598, -9486.114121409133, -10981.513118691742, 0.0, 0.01600000075995922, 0.9920000471174717, 0.0, 0.0, 0.0, 0.0, 0.0, 1.6670525634209523E9, 0.0, 2022-10-29 16:09:23.420
53.0, -7803.290037847124, -14446.883848184254, -9380.98553365469, -10978.25192593038, 0.0, 0.01600000075995922, 0.9920000471174717, 0.0, 0.0, 0.0, 0.0, 0.0, 1.6670525634209523E9, 0.0, 2022-10-29 16:09:23.420
54.0, -7582.136663817335, -14276.290181655437, -9511.623979006894, -10991.794103669934, 0.0, 0.01600000075995922, 0.9920000471174717, 0.0, 0.0, 0.0, 0.0, 0.0, 1.6670525634216359E9, 0.0, 2022-10-29 16:09:23.421
54.0, -7670.753593267407, -14071.390412833076, -9428.704787139315, -10934.48574669892, 0.0, 0.01600000075995922, 0.9920000471174717, 0.0, 0.0, 0.0, 0.0, 0.0, 1.6670525634216359E9, 0.0, 2022-10-29 16:09:23.421
55.0, -7610.89649447659, -13940.972621578258, -9517.633998235688, -11018.029501859099, 0.0, 0.01600000075995922, 0.9920000471174717, 0.0, 0.0, 0.0, 0.0, 0.0, 1.6670525634351947E9, 0.0, 2022-10-29 16:09:23.435
55.0, -7813.024997431785, -13949.796915523708, -9383.26687262766, -10979.261698918417, 0.0, 0.01600000075995922, 0.9920000471174717, 0.0, 0.0, 0.0, 0.0, 0.0, 1.6670525634351947E9, 0.0, 2022-10-29 16:09:23.435
56.0, -7572.738295228686, -13771.99272188032, -9509.009788937867, -10976.57832070021, 0.0, 0.01600000075995922, 0.9920000471174717, 0.0, 0.0, 0.0, 0.0, 0.0, 1.6670525634509451E9, 0.0, 2022-10-29 16:09:23.450
56.0, -7647.581173141953, -13592.019386262633, -9413.80128581589, -10935.972356931306, 0.0, 0.01600000075995922, 0.9920000471174717, 0.0, 0.0, 0.0, 0.0, 0.0, 1.6670525634509451E9, 0.0, 2022-10-29 16:09:23.450
57.0, -7667.31475525815, -13498.828559166752, -9553.585656509735, -11049.442791536916, 0.0, 0.01600000075995922, 0.9920000471174717, 0.0, 0.0, 0.0, 0.0, 0.0, 1.6670525634517236E9, 0.0, 2022-10-29 16:09:23.451
57.0, -7840.204720359761, -13495.256954709068, -9398.25265175011, -10984.136658510659, 0.0, 0.01600000075995922, 0.9920000471174717, 0.0, 0.0, 0.0, 0.0, 0.0, 1.6670525634517236E9, 0.0, 2022-10-29 16:09:23.451
58.0, -8013.14891401073, -13250.444973559584, -9436.077999901958, -10923.103361183777, 0.0, 0.01600000075995922, 0.9920000471174717, 0.0, 0.0, 0.0, 0.0, 0.0, 1.667052563465234E9, 0.0, 2022-10-29 16:09:23.465
58.0, -8161.907174648251, -13093.82731316518, -9426.588003764395, -10921.448455453385, 0.0, 0.01600000075995922, 0.9920000471174717, 0.0, 0.0, 0.0, 0.0, 0.0, 1.667052563465234E9, 0.0, 2022-10-29 16:09:23.465
59.0, -8135.66055675922, -12984.476378360763, -9528.909796602093, -11028.418943936005, 0.0, 0.01600000075995922, 0.9920000471174717, 0.0, 0.0, 0.0, 0.0, 0.0, 1.667052563480872E9, 0.0, 2022-10-29 16:09:23.480
59.0, -8335.343165143393, -13010.84828289831, -9407.108734845184, -11006.656466093846, 0.0, 0.01600000075995922, 0.9920000471174717, 0.0, 0.0, 0.0, 0.0, 0.0, 1.667052563480872E9, 0.0, 2022-10-29 16:09:23.480
60.0, -8478.499055647291, -13210.861872428562, -9418.193798313849, -10915.505754423793, 0.0, 0.01600000075995922, 0.9920000471174717, 0.0, 0.0, 0.0, 0.0, 0.0, 1.6670525634816403E9, 0.0, 2022-10-29 16:09:23.481
60.0, -8649.51720082108, -13115.58979100734, -9441.747688234784, -10957.55718952557, 0.0, 0.01600000075995922, 0.9920000471174717, 0.0, 0.0, 0.0, 0.0, 0.0, 1.6670525634816403E9, 0.0, 2022-10-29 16:09:23.481
61.0, -8652.473591736052, -13025.402103575878, -9566.57993890578, -11058.308224381879, 0.0, 0.01600000075995922, 0.9920000471174717, 0.0, 0.0, 0.0, 0.0, 0.0, 1.6670525634952197E9, 0.0, 2022-10-29 16:09:23.495
61.0, -8819.81354530342, -13021.905297117308, -9410.491474355105, -10993.607955148444, 0.0, 0.01600000075995922, 0.9920000471174717, 0.0, 0.0, 0.0, 0.0, 0.0, 1.6670525634952197E9, 0.0, 2022-10-29 16:09:23.495
62.0, -8959.640924846753, -13183.917763197795, -9409.289096519351, -10885.549155778717, 0.0, 0.01600000075995922, 0.9920000471174717, 0.0, 0.0, 0.0, 0.0, 0.0, 1.6670525635109606E9, 0.0, 2022-10-29 16:09:23.510
62.0, -9154.665487836115, -13129.851899488363, -9434.544640920125, -10963.548509254586, 0.0, 0.01600000075995922, 0.9920000471174717, 0.0, 0.0, 0.0, 0.0, 0.0, 1.6670525635109606E9, 0.0, 2022-10-29 16:09:23.510
63.0, -9162.48748859344, -13018.694593005348, -9565.91049681371, -11073.088309006765, 0.0, 0.01600000075995922, 0.9920000471174717, 0.0, 0.0, 0.0, 0.0, 0.0, 1.6670525635116677E9, 0.0, 2022-10-29 16:09:23.511
63.0, -9329.760123961605, -13004.295978175942, -9420.884656331968, -11018.321214055642, 0.0, 0.01600000075995922, 0.9920000471174717, 0.0, 0.0, 0.0, 0.0, 0.0, 1.6670525635116677E9, 0.0, 2022-10-29 16:09:23.511
64.0, -9438.28828077577, -13157.542118760291, -9389.179654457606, -10894.135966076981, 0.0, 0.01600000075995922, 0.9920000471174717, 0.0, 0.0, 0.0, 0.0, 0.0, 1.66705256352519E9, 0.0, 2022-10-29 16:09:23.525
64.0, -9648.870827580802, -13075.516762982123, -9446.164510082453, -10937.672141461167, 0.0, 0.01600000075995922, 0.9920000471174717, 0.0, 0.0, 0.0, 0.0, 0.0, 1.66705256352519E9, 0.0, 2022-10-29 16:09:23.525
65.0, -9657.08177793352, -13014.369398706593, -9559.911697284784, -11079.648093529046, 0.0, 0.01600000075995922, 0.9920000471174717, 0.0, 0.0, 0.0, 0.0, 0.0, 1.6670525635572643E9, 0.0, 2022-10-29 16:09:23.557
65.0, -9819.799215155654, -13020.729098581243, -9423.483886801172, -11021.918997813016, 0.0, 0.01600000075995922, 0.9920000471174717, 0.0, 0.0, 0.0, 0.0, 0.0, 1.6670525635572643E9, 0.0, 2022-10-29 16:09:23.557
66.0, -9894.481277370825, -13154.557678595651, -9349.675091225654, -10876.588355484884, 0.0, 0.01600000075995922, 0.9920000471174717, 0.0, 0.0, 0.0, 0.0, 0.0, 1.6670525635579844E9, 0.0, 2022-10-29 16:09:23.557
66.0, -10121.362308182754, -13088.527874927968, -9424.334714041092, -10995.098305280786, 0.0, 0.01600000075995922, 0.9920000471174717, 0.0, 0.0, 0.0, 0.0, 0.0, 1.6670525635579844E9, 0.0, 2022-10-29 16:09:23.557
67.0, -10144.622615957167, -13036.326351346448, -9566.265787309501, -11094.031748758629, 0.0, 0.01600000075995922, 0.9920000471174717, 0.0, 0.0, 0.0, 0.0, 0.0, 1.667052563558727E9, 0.0, 2022-10-29 16:09:23.558
67.0, -10317.789333655499, -13033.820618376136, -9433.521778282244, -11014.700990898535, 0.0, 0.01600000075995922, 0.9920000471174717, 0.0, 0.0, 0.0, 0.0, 0.0, 1.667052563558727E9, 0.0, 2022-10-29 16:09:23.558
68.0, -10374.164585587569, -13115.91890220344, -9315.615822329186, -10858.10950980382, 0.0, 0.01600000075995922, 0.9920000471174717, 0.0, 0.0, 0.0, 0.0, 0.0, 1.667052563559568E9, 0.0, 2022-10-29 16:09:23.559
68.0, -10149.933273894247, -13112.364127295557, -9427.132159207948, -11001.643130203243, 0.0, 0.01600000075995922, 0.9920000471174717, 0.0, 0.0, 0.0, 0.0, 0.0, 1.667052563559568E9, 0.0, 2022-10-29 16:09:23.559
69.0, -10175.938668236136, -13063.584612173494, -9569.91966956621, -11116.837658688426, 0.0, 0.01600000075995922, 0.9920000471174717, 0.0, 0.0, 0.0, 0.0, 0.0, 1.6670525635703661E9, 0.0, 2022-10-29 16:09:23.570
69.0, -10330.914512549993, -13051.800187413115, -9433.570396981668, -11025.262468373403, 0.0, 0.01600000075995922, 0.9920000471174717, 0.0, 0.0, 0.0, 0.0, 0.0, 1.6670525635703661E9, 0.0, 2022-10-29 16:09:23.570
70.0, -10345.986309371423, -13107.053469358478, -9277.31176698301, -10857.264292413834, 0.0, 0.01600000075995922, 0.9920000471174717, 0.0, 0.0, 0.0, 0.0, 0.0, 1.6670525635852284E9, 0.0, 2022-10-29 16:09:23.585
70.0, -10163.582038782537, -13187.150906709488, -9445.08367899526, -11021.015811973717, 0.0, 0.01600000075995922, 0.9920000471174717, 0.0, 0.0, 0.0, 0.0, 0.0, 1.6670525635852284E9, 0.0, 2022-10-29 16:09:23.585
71.0, -10193.798560474534, -13076.580764519516, -9601.742478289176, -11127.70580795966, 0.0, 0.03200000151991844, 0.9920000471174717, 0.0, 0.0, 0.0, 0.0, 0.0, 1.6670525636010044E9, 0.0, 2022-10-29 16:09:23.601
71.0, -10338.889849205501, -13044.039895005058, -9441.771997584496, -11024.679043980315, 0.0, 0.03200000151991844, 0.9920000471174717, 0.0, 0.0, 0.0, 0.0, 0.0, 1.6670525636010044E9, 0.0, 2022-10-29 16:09:23.601
72.0, -10347.910487898625, -13087.811684086453, -9289.776853535324, -10833.803899991792, 0.0, 0.03200000151991844, 0.9920000471174717, 0.0, 0.0, 0.0, 0.0, 0.0, 1.6670525636016915E9, 0.0, 2022-10-29 16:09:23.601
72.0, -10159.743031478021, -13149.460194956046, -9431.530281555839, -11001.504753904883, 0.0, 0.03200000151991844, 0.9920000471174717, 0.0, 0.0, 0.0, 0.0, 0.0, 1.6670525636016915E9, 0.0, 2022-10-29 16:09:23.601
73.0, -10219.123293024488, -13098.025350865442, -9612.539569461253, -11130.364876828156, 0.0, 0.03200000151991844, 0.9920000471174717, 0.0, 0.0, 0.0, 0.0, 0.0, 1.6670525636152403E9, 0.0, 2022-10-29 16:09:23.615
73.0, -10353.18187688617, -13044.627059298102, -9446.32345583057, -11006.144099799916, 0.0, 0.03200000151991844, 0.9920000471174717, 0.0, 0.0, 0.0, 0.0, 0.0, 1.6670525636152403E9, 0.0, 2022-10-29 16:09:23.615
74.0, -10334.615143556148, -13138.01984099159, -9283.134791214019, -10823.507955413777, 0.0, 0.03200000151991844, 0.9920000471174717, 0.0, 0.0, 0.0, 0.0, 0.0, 1.667052563630891E9, 0.0, 2022-10-29 16:09:23.630
74.0, -10160.749064566102, -13159.266212639865, -9432.566233843565, -10990.498228335287, 0.0, 0.03200000151991844, 0.9920000471174717, 0.0, 0.0, 0.0, 0.0, 0.0, 1.667052563630891E9, 0.0, 2022-10-29 16:09:23.630
75.0, -10234.561600041576, -13117.087620939594, -9626.635252394248, -11148.970879107714, 0.0, 0.03200000151991844, 0.9920000471174717, 0.0, 0.0, 0.0, 0.0, 0.0, 1.6670525636316516E9, 0.0, 2022-10-29 16:09:23.631
75.0, -10345.94517047191, -13051.792707613204, -9444.52830385184, -10996.86540800985, 0.0, 0.03200000151991844, 0.9920000471174717, 0.0, 0.0, 0.0, 0.0, 0.0, 1.6670525636316516E9, 0.0, 2022-10-29 16:09:23.631
76.0, -10291.707271364518, -13052.895978100132, -9243.75738458056, -10775.824230978731, 0.0, 0.03200000151991844, 0.9920000471174717, 0.0, 0.0, 0.0, 0.0, 0.0, 1.6670525636452653E9, 0.0, 2022-10-29 16:09:23.645
76.0, -10188.689857135061, -13165.627782464493, -9468.061624323018, -10556.839998923242, 0.0, 0.03200000151991844, 0.9920000471174717, 0.0, 0.0, 0.0, 0.0, 0.0, 1.6670525636452653E9, 0.0, 2022-10-29 16:09:23.645
77.0, -10218.2444165349, -13118.55740162218, -9633.55780721223, -10664.74172249483, 0.0, 0.03200000151991844, 0.9920000471174717, 0.0, 0.0, 0.0, 0.0, 0.0, 1.6670525636610184E9, 0.0, 2022-10-29 16:09:23.661
77.0, -10331.557775342371, -13059.156570625957, -9446.110281533096, -10478.27031070413, 0.0, 0.03200000151991844, 0.9920000471174717, 0.0, 0.0, 0.0, 0.0, 0.0, 1.6670525636610184E9, 0.0, 2022-10-29 16:09:23.661
78.0, -10277.334835834801, -13094.861395502929, -9241.109535411932, -10291.501576866955, 0.0, 0.03200000151991844, 0.9920000471174717, 0.0, 0.0, 0.0, 0.0, 0.0, 1.667052563661751E9, 0.0, 2022-10-29 16:09:23.661
78.0, -10196.95129613718, -13174.008898265194, -9010.756007491145, -10084.552342868876, 0.0, 0.03200000151991844, 0.9920000471174717, 0.0, 0.0, 0.0, 0.0, 0.0, 1.667052563661751E9, 0.0, 2022-10-29 16:09:23.661
79.0, -10202.622854419984, -13087.265658692922, -9132.502840698697, -10167.602431234904, 0.0, 0.03200000151991844, 0.9920000471174717, 0.0, 0.0, 0.0, 0.0, 0.0, 1.667052563675308E9, 0.0, 2022-10-29 16:09:23.675
79.0, -10333.106093924027, -13070.320171993691, -8952.692190729082, -10011.521446484141, 0.0, 0.03200000151991844, 0.9920000471174717, 0.0, 0.0, 0.0, 0.0, 0.0, 1.667052563675308E9, 0.0, 2022-10-29 16:09:23.675
80.0, -10232.654251064174, -13032.017986597493, -9193.145318480209, -9768.029650019016, 0.0, 0.03200000151991844, 0.9920000471174717, 0.0, 0.0, 0.0, 0.0, 0.0, 1.6670525636909769E9, 0.0, 2022-10-29 16:09:23.690
80.0, -10206.944308818784, -13176.950329580344, -9035.947973592672, -9614.628303586505, 0.0, 0.03200000151991844, 0.9920000471174717, 0.0, 0.0, 0.0, 0.0, 0.0, 1.6670525636909769E9, 0.0, 2022-10-29 16:09:23.690
81.0, -10273.351842381991, -13175.33095289953, -9198.321340018883, -9712.364979078528, 0.0, 0.03200000151991844, 0.9920000471174717, 0.0, 0.0, 0.0, 0.0, 0.0, 1.667052563691779E9, 0.0, 2022-10-29 16:09:23.691
81.0, -10348.091873046476, -13074.959517888725, -8962.382271514274, -9487.215521946084, 0.0, 0.03200000151991844, 0.9920000471174717, 0.0, 0.0, 0.0, 0.0, 0.0, 1.667052563691779E9, 0.0, 2022-10-29 16:09:23.691
82.0, -10227.97189631965, -13020.586982382927, -9192.490835987963, -9268.276168690063, 0.0, 0.03200000151991844, 0.9920000471174717, 0.0, 0.0, 0.0, 0.0, 0.0, 1.6670525637053747E9, 0.0, 2022-10-29 16:09:23.705
82.0, -10214.005239935126, -13136.288267312106, -9011.04771968769, -9101.72159411339, 0.0, 0.03200000151991844, 0.9920000471174717, 0.0, 0.0, 0.0, 0.0, 0.0, 1.6670525637053747E9, 0.0, 2022-10-29 16:09:23.705
83.0, -10238.84378549084, -13147.715531626716, -9174.303702503443, -9203.063533162698, 0.0, 0.03200000151991844, 0.9920000471174717, 0.0, 0.0, 0.0, 0.0, 0.0, 1.667052563720996E9, 0.0, 2022-10-29 16:09:23.720
83.0, -10343.936844195705, -13088.954223522916, -8951.110213047825, -9006.898300686851, 0.0, 0.03200000151991844, 0.9920000471174717, 0.0, 0.0, 0.0, 0.0, 0.0, 1.667052563720996E9, 0.0, 2022-10-29 16:09:23.720
84.0, -10220.996982902288, -12938.088529260363, -9174.872167296708, -8769.756854346488, 0.0, 0.03200000151991844, 0.9920000471174717, 0.0, 0.0, 0.0, 0.0, 0.0, 1.6670525637217305E9, 0.0, 2022-10-29 16:09:23.721
84.0, -10202.733181468677, -12720.813431484625, -9015.273806637619, -8623.569774928503, 0.0, 0.03200000151991844, 0.9920000471174717, 0.0, 0.0, 0.0, 0.0, 0.0, 1.6670525637217305E9, 0.0, 2022-10-29 16:09:23.721
85.0, -10250.362677354366, -12673.477517745458, -9182.580101105385, -8713.905188408215, 0.0, 0.03200000151991844, 0.9920000471174717, 0.0, 0.0, 0.0, 0.0, 0.0, 1.667052563735223E9, 0.0, 2022-10-29 16:09:23.735
85.0, -10357.452842635568, -12591.210938420147, -8966.387704366818, -8510.009582723957, 0.0, 0.03200000151991844, 0.9920000471174717, 0.0, 0.0, 0.0, 0.0, 0.0, 1.667052563735223E9, 0.0, 2022-10-29 16:09:23.735
86.0, -10171.525586288422, -12440.670615453739, -9159.224425882101, -8737.470298029017, 0.0, 0.03200000151991844, 0.9920000471174717, 0.0, 0.0, 0.0, 0.0, 0.0, 1.667052563751017E9, 0.0, 2022-10-29 16:09:23.751
86.0, -10206.269256876782, -12247.884382587858, -9036.378062087577, -8635.769328583963, 0.0, 0.03200000151991844, 0.9920000471174717, 0.0, 0.0, 0.0, 0.0, 0.0, 1.667052563751017E9, 0.0, 2022-10-29 16:09:23.751
87.0, -10274.79357381491, -12183.094355755486, -9217.809958687983, -8734.893506959546, 0.0, 0.03200000151991844, 0.9920000471174717, 0.0, 0.0, 0.0, 0.0, 0.0, 1.6670525637517645E9, 0.0, 2022-10-29 16:09:23.751
87.0, -10360.274597152136, -12115.862174252048, -8984.481340352446, -8528.967135599349, 0.0, 0.03200000151991844, 0.9920000471174717, 0.0, 0.0, 0.0, 0.0, 0.0, 1.6670525637517645E9, 0.0, 2022-10-29 16:09:23.751
88.0, -10134.551065376494, -11981.433340294752, -9134.017500180751, -8723.258678197395, 0.0, 0.03200000151991844, 0.9920000471174717, 0.0, 0.0, 0.0, 0.0, 0.0, 1.6670525637653856E9, 0.0, 2022-10-29 16:09:23.765
88.0, -10209.726794385817, -12217.177934001666, -9039.904787745792, -8650.302579811774, 0.0, 0.03200000151991844, 0.9920000471174717, 0.0, 0.0, 0.0, 0.0, 0.0, 1.6670525637653856E9, 0.0, 2022-10-29 16:09:23.765
