%OpenBCI Raw EEG Data
%Number of channels = 4
%Sample Rate = 200 Hz
%Board = OpenBCI_GUI$BoardGanglionBLE
Sample Index, EXG Channel 0, EXG Channel 1, EXG Channel 2, EXG Channel 3, Accel Channel 0, Accel Channel 1, Accel Channel 2, Other, Other, Other, Other, Other, Timestamp, Other, Timestamp (Formatted)
0.0, -1807.2823442374356, -2033.7575959041715, -2223.7576033030637, -572.3486793688498, 0.0, 0.0, 0.0, 0.0, 0.0, 0.0, 0.0, 0.0, 1.6670526156983109E9, 0.0, 2022-10-29 16:10:15.698
1.0, -1624.8182352492586, -1799.765145326499, -2100.264236816205, -353.0278563173488, 0.0, 0.03200000151991844, 0.0, 0.0, 0.0, 0.0, 0.0, 0.0, 1.667052615729417E9, 0.0, 2022-10-29 16:10:15.729
1.0, -1756.9694701335393, -1753.5437217741273, -1864.2952491119504, -581.5937120593153, 0.0, 0.03200000151991844, 0.0, 0.0, 0.0, 0.0, 0.0, 0.0, 1.667052615729417E9, 0.0, 2022-10-29 16:10:15.729
2.0, -1852.2004126552492, -1826.1220902642235, -2001.1961569399573, -772.4763358477503, 0.0, 0.03200000151991844, 0.0, 0.0, 0.0, 0.0, 0.0, 0.0, 1.6670526157307317E9, 0.0, 2022-10-29 16:10:15.730
2.0, -1744.440805281978, -1990.1952412202954, -2163.2273225202225, -943.7824533181265, 0.0, 0.03200000151991844, 0.0, 0.0, 0.0, 0.0, 0.0, 0.0, 1.6670526157307317E9, 0.0, 2022-10-29 16:10:15.730
3.0, -1626.6545261275023, -1838.6788043654524, -2090.398380733095, -766.9655932630412, 0.0, 0.03200000151991844, 0.0, 0.0, 0.0, 0.0, 0.0, 0.0, 1.6670526157422028E9, 0.0, 2022-10-29 16:10:15.742
3.0, -1760.9449837864377, -1786.050932188984, -1866.531709285453, -544.5425231982954, 0.0, 0.03200000151991844, 0.0, 0.0, 0.0, 0.0, 0.0, 0.0, 1.6670526157422028E9, 0.0, 2022-10-29 16:10:15.742
4.0, -1850.5361571749672, -1853.0568497451022, -1989.789462075103, -737.2315186653286, 0.0, 0.03200000151991844, 0.0, 0.0, 0.0, 0.0, 0.0, 0.0, 1.6670526157427747E9, 0.0, 2022-10-29 16:10:15.742
4.0, -1718.4784197895788, -1973.7658607149497, -2123.1842136946507, -860.016174110584, 0.0, 0.03200000151991844, 0.0, 0.0, 0.0, 0.0, 0.0, 0.0, 1.6670526157427747E9, 0.0, 2022-10-29 16:10:15.742
5.0, -1619.1485469164327, -1836.8686927868985, -2064.5818513389677, -706.0276633850299, 0.0, 0.03200000151991844, 0.0, 0.0, 0.0, 0.0, 0.0, 0.0, 1.667052615757152E9, 0.0, 2022-10-29 16:10:15.757
5.0, -1761.5508475792594, -1800.8459764136933, -1851.7628443604335, -511.814658686053, 0.0, 0.03200000151991844, 0.0, 0.0, 0.0, 0.0, 0.0, 0.0, 1.667052615757152E9, 0.0, 2022-10-29 16:10:15.757
6.0, -1837.7830983260646, -1863.1284003257751, -1977.2607972235419, -716.7593063078821, 0.0, 0.03200000151991844, 0.0, 0.0, 0.0, 0.0, 0.0, 0.0, 1.667052615757893E9, 0.0, 2022-10-29 16:10:15.757
6.0, -1702.5950646777637, -1968.8441523732617, -2089.132424598094, -801.8495100997388, 0.0, 0.03200000151991844, 0.0, 0.0, 0.0, 0.0, 0.0, 0.0, 1.667052615757893E9, 0.0, 2022-10-29 16:10:15.757
7.0, -1597.9358343677595, -1834.4003588161431, -2045.9122707601637, -653.0370209128596, 0.0, 0.03200000151991844, 0.0, 0.0, 0.0, 0.0, 0.0, 0.0, 1.6670526157713943E9, 0.0, 2022-10-29 16:10:15.771
7.0, -1781.7051684404723, -1846.1529944268987, -1879.4867227319628, -481.18487804895267, 0.0, 0.03200000151991844, 0.0, 0.0, 0.0, 0.0, 0.0, 0.0, 1.6670526157713943E9, 0.0, 2022-10-29 16:10:15.771
8.0, -1806.999981790781, -1838.4039217187092, -1944.9705010061152, -651.9057011762634, 0.0, 0.03200000151991844, 0.0, 0.0, 0.0, 0.0, 0.0, 0.0, 1.6670526157870886E9, 0.0, 2022-10-29 16:10:15.787
8.0, -1763.0468075615354, -2040.8895851196721, -2143.746183651034, -767.9173978017643, 0.0, 0.03200000151991844, 0.0, 0.0, 0.0, 0.0, 0.0, 0.0, 1.6670526157870886E9, 0.0, 2022-10-29 16:10:15.787
9.0, -1568.080213021487, -1798.822690537665, -2006.2693312298506, -572.9695027614944, 0.0, 0.03200000151991844, 0.0, 0.0, 0.0, 0.0, 0.0, 0.0, 1.667052615787923E9, 0.0, 2022-10-29 16:10:15.787
9.0, -1342.208955197595, -1892.5202740775421, -1898.9716015011072, -457.32431633165106, 0.0, 0.03200000151991844, 0.0, 0.0, 0.0, 0.0, 0.0, 0.0, 1.667052615787923E9, 0.0, 2022-10-29 16:10:15.787
10.0, -1302.7530106650665, -1827.7826058445498, -1908.6859916360117, -594.3822999577969, 0.0, 0.03200000151991844, 0.9920000471174717, 0.0, 0.0, 0.0, 0.0, 0.0, 1.6670526158177807E9, 0.0, 2022-10-29 16:10:15.817
10.0, -1265.6513331546448, -2027.4970033783466, -2114.6983806951903, -714.3769900361076, 0.0, 0.03200000151991844, 0.9920000471174717, 0.0, 0.0, 0.0, 0.0, 0.0, 1.6670526158177807E9, 0.0, 2022-10-29 16:10:15.817
11.0, -1085.5994596378878, -1802.1811206978746, -1978.7735867556185, -529.5417844760232, 0.0, 0.01600000075995922, 0.9920000471174717, 0.0, 0.0, 0.0, 0.0, 0.0, 1.6670526158185194E9, 0.0, 2022-10-29 16:10:15.818
11.0, -856.964415746741, -1905.0975576285273, -1889.4498162139207, -435.24394699325785, 0.0, 0.01600000075995922, 0.9920000471174717, 0.0, 0.0, 0.0, 0.0, 0.0, 1.6670526158185194E9, 0.0, 2022-10-29 16:10:15.818
12.0, -806.8460164405406, -1823.885630090721, -1878.4732098439708, -571.8456628248096, 0.0, 0.01600000075995922, 0.9920000471174717, 0.0, 0.0, 0.0, 0.0, 0.0, 1.667052615819217E9, 0.0, 2022-10-29 16:10:15.819
12.0, -759.5792908505537, -2012.8665147516876, -2079.376895563677, -653.6971132550389, 0.0, 0.01600000075995922, 0.9920000471174717, 0.0, 0.0, 0.0, 0.0, 0.0, 1.667052615819217E9, 0.0, 2022-10-29 16:10:15.819
13.0, -602.1164130661637, -1827.070154902991, -1984.8378345337696, -494.74949518823996, 0.0, 0.01600000075995922, 0.9920000471174717, 0.0, 0.0, 0.0, 0.0, 0.0, 1.6670526158313735E9, 0.0, 2022-10-29 16:10:15.831
13.0, -397.1474560946226, -1938.618280931376, -1900.4282925338484, -411.70875657210127, 0.0, 0.01600000075995922, 0.9920000471174717, 0.0, 0.0, 0.0, 0.0, 0.0, 1.6670526158313735E9, 0.0, 2022-10-29 16:10:15.831
14.0, -332.6715808585286, -1841.3098239842802, -1888.6924864728935, -552.2672865567729, 0.0, 0.01600000075995922, 0.9920000471174717, 0.0, 0.0, 0.0, 0.0, 0.0, 1.6670526158471832E9, 0.0, 2022-10-29 16:10:15.847
14.0, -279.8959826338105, -2019.628253871575, -2067.459704354871, -594.3112418586388, 0.0, 0.01600000075995922, 0.9920000471174717, 0.0, 0.0, 0.0, 0.0, 0.0, 1.6670526158471832E9, 0.0, 2022-10-29 16:10:15.847
15.0, -134.90567120164633, -1854.1993891815655, -1981.107284327969, -453.36750217853114, 0.0, 0.01600000075995922, 0.9920000471174717, 0.0, 0.0, 0.0, 0.0, 0.0, 1.6670526158477993E9, 0.0, 2022-10-29 16:10:15.847
15.0, 87.22942656651139, -1949.037642207928, -1900.7817130796611, -393.03543609334156, 0.0, 0.01600000075995922, 0.9920000471174717, 0.0, 0.0, 0.0, 0.0, 0.0, 1.6670526158477993E9, 0.0, 2022-10-29 16:10:15.847
16.0, 160.7035010959953, -1836.8930021366104, -1870.6829982362688, -524.2928348882124, 0.0, 0.01600000075995922, 0.9920000471174717, 0.0, 0.0, 0.0, 0.0, 0.0, 1.6670526158614E9, 0.0, 2022-10-29 16:10:15.861
16.0, 214.3841551099904, -2014.8598814280704, -2056.2156951380894, -565.098883304745, 0.0, 0.01600000075995922, 0.9920000471174717, 0.0, 0.0, 0.0, 0.0, 0.0, 1.6670526158614E9, 0.0, 2022-10-29 16:10:15.861
17.0, 351.2102649388835, -1848.0921325539239, -1971.8042831881903, -414.71937603643164, 0.0, 0.01600000075995922, 0.9920000471174717, 0.0, 0.0, 0.0, 0.0, 0.0, 1.6670526158932118E9, 0.0, 2022-10-29 16:10:15.893
17.0, 542.9773750668392, -1980.7968726316467, -1906.9282386568375, -374.276097915601, 0.0, 0.01600000075995922, 0.9920000471174717, 0.0, 0.0, 0.0, 0.0, 0.0, 1.6670526158932118E9, 0.0, 2022-10-29 16:10:15.893
18.0, 624.4510956015438, -1873.334587304853, -1879.3053375841118, -534.7795143639669, 0.0, 0.01600000075995922, 0.9920000471174717, 0.0, 0.0, 0.0, 0.0, 0.0, 1.6670526158938785E9, 0.0, 2022-10-29 16:10:15.893
18.0, 699.6735733603127, -2027.0108163841069, -2042.5893696495332, -544.3648779504001, 0.0, 0.01600000075995922, 0.9920000471174717, 0.0, 0.0, 0.0, 0.0, 0.0, 1.6670526158938785E9, 0.0, 2022-10-29 16:10:15.893
19.0, 819.4158201916143, -1866.8776500313543, -1979.8618976427242, -410.35117288818583, 0.0, 0.01600000075995922, 0.9920000471174717, 0.0, 0.0, 0.0, 0.0, 0.0, 1.6670526159077415E9, 0.0, 2022-10-29 16:10:15.907
19.0, 1011.0482939211652, -2001.1232288908213, -1917.4093082826585, -378.7490182626061, 0.0, 0.01600000075995922, 0.9920000471174717, 0.0, 0.0, 0.0, 0.0, 0.0, 1.6670526159077415E9, 0.0, 2022-10-29 16:10:15.907
20.0, 1109.9611679492518, -1864.6094007082283, -1857.4549720929936, -510.96009154617786, 0.0, 0.01600000075995922, 0.49600002355873585, 0.0, 0.0, 0.0, 0.0, 0.0, 1.667052615908507E9, 0.0, 2022-10-29 16:10:15.908
20.0, 1175.6581205208786, -2028.4880768666044, -2030.8629133384675, -521.656205419451, 0.0, 0.01600000075995922, 0.49600002355873585, 0.0, 0.0, 0.0, 0.0, 0.0, 1.667052615908507E9, 0.0, 2022-10-29 16:10:15.908
21.0, 1263.0502327354625, -1910.9598508090712, -2008.7806740500964, -422.90227713948116, 0.0, 0.01600000075995922, 0.49600002355873585, 0.0, 0.0, 0.0, 0.0, 0.0, 1.6670526159092362E9, 0.0, 2022-10-29 16:10:15.909
21.0, 1445.0898630786687, -2045.2503084680066, -1942.3376114373095, -394.77822947269306, 0.0, 0.01600000075995922, 0.49600002355873585, 0.0, 0.0, 0.0, 0.0, 0.0, 1.6670526159092362E9, 0.0, 2022-10-29 16:10:15.909
22.0, 1534.5108710192144, -1919.656988156028, -1897.8066226649098, -563.4720268240198, 0.0, 0.01600000075995922, 0.49600002355873585, 0.0, 0.0, 0.0, 0.0, 0.0, 1.6670526159213066E9, 0.0, 2022-10-29 16:10:15.921
22.0, 1606.9433834110387, -2084.5566570023075, -2067.2465300573967, -580.5708494214341, 0.0, 0.01600000075995922, 0.49600002355873585, 0.0, 0.0, 0.0, 0.0, 0.0, 1.6670526159213066E9, 0.0, 2022-10-29 16:10:15.921
23.0, 1684.694033539854, -1975.3459684462287, -2047.041720546782, -493.9902954972349, 0.0, 0.01600000075995922, 0.49600002355873585, 0.0, 0.0, 0.0, 0.0, 0.0, 1.6670526159370823E9, 0.0, 2022-10-29 16:10:15.937
23.0, 1848.1351414034143, -2131.1932094497606, -2012.4962646560743, -478.0583216859959, 0.0, 0.01600000075995922, 0.49600002355873585, 0.0, 0.0, 0.0, 0.0, 0.0, 1.6670526159370823E9, 0.0, 2022-10-29 16:10:15.937
24.0, 1950.1147333951667, -1976.3463916843757, -1946.2252374412492, -609.8617458743975, 0.0, 0.01600000075995922, 0.49600002355873585, 0.0, 0.0, 0.0, 0.0, 0.0, 1.6670526159378033E9, 0.0, 2022-10-29 16:10:15.937
24.0, 2064.74453698704, -2094.8226823806763, -2069.7728324774653, -607.7056935499422, 0.0, 0.01600000075995922, 0.49600002355873585, 0.0, 0.0, 0.0, 0.0, 0.0, 1.6670526159378033E9, 0.0, 2022-10-29 16:10:15.937
25.0, 2122.587699651718, -2012.9020438012667, -2084.852109098807, -536.1183985481039, 0.0, 0.01600000075995922, 0.49600002355873585, 0.0, 0.0, 0.0, 0.0, 0.0, 1.66705261595142E9, 0.0, 2022-10-29 16:10:15.951
25.0, 2265.119026863016, -2191.3382805371657, -2068.0001198984683, -510.25699035450816, 0.0, 0.01600000075995922, 0.49600002355873585, 0.0, 0.0, 0.0, 0.0, 0.0, 1.66705261595142E9, 0.0, 2022-10-29 16:10:15.951
26.0, 2326.77501753252, -2081.2019667420536, -2043.8403661847115, -697.137921190355, 0.0, 0.01600000075995922, 0.49600002355873585, 0.0, 0.0, 0.0, 0.0, 0.0, 1.6670526159669857E9, 0.0, 2022-10-29 16:10:15.966
26.0, 2407.1435976303183, -2241.0789499478415, -2193.1035133162513, -735.2288022390567, 0.0, 0.01600000075995922, 0.49600002355873585, 0.0, 0.0, 0.0, 0.0, 0.0, 1.6670526159669857E9, 0.0, 2022-10-29 16:10:15.966
27.0, 2463.6329165110365, -2150.160112075042, -2201.4135710177943, -684.0538811953738, 0.0, 0.01600000075995922, 0.49600002355873585, 0.0, 0.0, 0.0, 0.0, 0.0, 1.66705261596775E9, 0.0, 2022-10-29 16:10:15.967
27.0, 2601.814740073867, -2348.5374953746796, -2206.737318604719, -666.5661090025678, 0.0, 0.01600000075995922, 0.49600002355873585, 0.0, 0.0, 0.0, 0.0, 0.0, 1.66705261596775E9, 0.0, 2022-10-29 16:10:15.967
28.0, 2714.172554442659, -2187.3590269843116, -2132.6087615829892, -797.6664319992997, 0.0, 0.01600000075995922, 0.49600002355873585, 0.0, 0.0, 0.0, 0.0, 0.0, 1.6670526159814315E9, 0.0, 2022-10-29 16:10:15.981
28.0, 2802.9783488404937, -2341.551362257451, -2283.8839748906903, -845.0547043378465, 0.0, 0.01600000075995922, 0.49600002355873585, 0.0, 0.0, 0.0, 0.0, 0.0, 1.6670526159814315E9, 0.0, 2022-10-29 16:10:15.981
29.0, 2866.8913691332564, -2229.2440365380608, -2260.186098821461, -729.2318726601079, 0.0, 0.01600000075995922, 0.49600002355873585, 0.0, 0.0, 0.0, 0.0, 0.0, 1.6670526159972055E9, 0.0, 2022-10-29 16:10:15.997
29.0, 2986.5943470150232, -2418.0584956509992, -2277.5224050660618, -727.9864859748632, 0.0, 0.01600000075995922, 0.49600002355873585, 0.0, 0.0, 0.0, 0.0, 0.0, 1.6670526159972055E9, 0.0, 2022-10-29 16:10:15.997
30.0, 3111.869775830768, -2260.58626811672, -2214.8454217086546, -870.0783749413677, 0.0, 0.01600000075995922, 0.7520000357180834, 0.0, 0.0, 0.0, 0.0, 0.0, 1.6670526159978192E9, 0.0, 2022-10-29 16:10:15.997
30.0, 3186.2657356993295, -2428.71347062476, -2375.4180263062008, -923.4018685095944, 0.0, 0.01600000075995922, 0.7520000357180834, 0.0, 0.0, 0.0, 0.0, 0.0, 1.6670526159978192E9, 0.0, 2022-10-29 16:10:15.997
31.0, 3227.6308991592377, -2344.2310005757026, -2375.7920163017698, -844.0804603993893, 0.0, 0.01600000075995922, 0.7520000357180834, 0.0, 0.0, 0.0, 0.0, 0.0, 1.6670526160113332E9, 0.0, 2022-10-29 16:10:16.011
31.0, 3393.798394090496, -2508.8744862750173, -2356.3894153316505, -802.4104950930923, 0.0, 0.01600000075995922, 0.7520000357180834, 0.0, 0.0, 0.0, 0.0, 0.0, 1.6670526160113332E9, 0.0, 2022-10-29 16:10:16.011
32.0, 3480.5191942630336, -2367.192116353661, -2311.1478455676697, -963.422537935432, 0.0, 0.01600000075995922, 0.7520000357180834, 0.0, 0.0, 0.0, 0.0, 0.0, 1.6670526160270667E9, 0.0, 2022-10-29 16:10:16.027
32.0, 3583.282295295503, -2516.0962330894545, -2441.3711620247923, -1026.3239152901806, 0.0, 0.01600000075995922, 0.7520000357180834, 0.0, 0.0, 0.0, 0.0, 0.0, 1.6670526160270667E9, 0.0, 2022-10-29 16:10:16.027
33.0, 3584.09198363591, -2475.8717391160317, -2498.4981338479556, -992.6928649386391, 0.0, 0.01600000075995922, 0.7520000357180834, 0.0, 0.0, 0.0, 0.0, 0.0, 1.6670526160277858E9, 0.0, 2022-10-29 16:10:16.027
33.0, 3715.381171580404, -2646.7945168409497, -2496.0484993769787, -968.5592905245721, 0.0, 0.01600000075995922, 0.7520000357180834, 0.0, 0.0, 0.0, 0.0, 0.0, 1.6670526160277858E9, 0.0, 2022-10-29 16:10:16.027
34.0, 3845.3763541402295, -2471.4081685189158, -2413.8006195514463, -1083.4284477136098, 0.0, 0.01600000075995922, 0.7520000357180834, 0.0, 0.0, 0.0, 0.0, 0.0, 1.667052616041458E9, 0.0, 2022-10-29 16:10:16.041
34.0, 3956.5504901730455, -2609.06640608795, -2525.24589833105, -1116.8968124170788, 0.0, 0.01600000075995922, 0.7520000357180834, 0.0, 0.0, 0.0, 0.0, 0.0, 1.667052616041458E9, 0.0, 2022-10-29 16:10:16.041
35.0, 3988.4050880456343, -2546.095840584021, -2556.515201860573, -1059.8876474425197, 0.0, 0.01600000075995922, 0.7520000357180834, 0.0, 0.0, 0.0, 0.0, 0.0, 1.667052616057098E9, 0.0, 2022-10-29 16:10:16.057
35.0, 4143.465080108494, -2690.012800728902, -2536.327221899759, -996.3392673954368, 0.0, 0.01600000075995922, 0.7520000357180834, 0.0, 0.0, 0.0, 0.0, 0.0, 1.667052616057098E9, 0.0, 2022-10-29 16:10:16.057
36.0, 4290.559085265733, -2499.132046890445, -2427.9449211838655, -1106.2867162427865, 0.0, 0.01600000075995922, 0.7520000357180834, 0.0, 0.0, 0.0, 0.0, 0.0, 1.6670526160577884E9, 0.0, 2022-10-29 16:10:16.057
36.0, 4449.9367918274365, -2591.735709693283, -2502.9635743950494, -1144.6356503884308, 0.0, 0.01600000075995922, 0.7520000357180834, 0.0, 0.0, 0.0, 0.0, 0.0, 1.6670526160577884E9, 0.0, 2022-10-29 16:10:16.057
37.0, 4526.501893670298, -2469.7831819881685, -2476.576710257679, -1066.252957167104, 0.0, 0.01600000075995922, 0.7520000357180834, 0.0, 0.0, 0.0, 0.0, 0.0, 1.6670526160713534E9, 0.0, 2022-10-29 16:10:16.071
37.0, 4686.173182378523, -2628.4390878584236, -2467.017525970936, -986.8735806075856, 0.0, 0.01600000075995922, 0.7520000357180834, 0.0, 0.0, 0.0, 0.0, 0.0, 1.6670526160713534E9, 0.0, 2022-10-29 16:10:16.071
38.0, 4820.34957308881, -2440.830746481195, -2373.606044777669, -1105.7332110493444, 0.0, 0.01600000075995922, 0.7520000357180834, 0.0, 0.0, 0.0, 0.0, 0.0, 1.6670526160870574E9, 0.0, 2022-10-29 16:10:16.087
38.0, 5031.846525433008, -2482.201519791037, -2379.9451752025634, -1094.436843233183, 0.0, 0.01600000075995922, 0.7520000357180834, 0.0, 0.0, 0.0, 0.0, 0.0, 1.6670526160870574E9, 0.0, 2022-10-29 16:10:16.087
39.0, 5110.382554552518, -2381.8843133295886, -2365.9785188180394, -1001.3077244865708, 0.0, 0.01600000075995922, 0.7520000357180834, 0.0, 0.0, 0.0, 0.0, 0.0, 1.6670526160878751E9, 0.0, 2022-10-29 16:10:16.087
39.0, 5285.166778981686, -2502.3371411524713, -2326.3804580871947, -924.8903486919589, 0.0, 0.01600000075995922, 0.7520000357180834, 0.0, 0.0, 0.0, 0.0, 0.0, 1.6670526160878751E9, 0.0, 2022-10-29 16:10:16.087
40.0, 5481.72470095288, -2258.233871044591, -2187.0093463384546, -1034.7816990399733, 0.0, 0.01600000075995922, 0.8800000417977571, 0.0, 0.0, 0.0, 0.0, 0.0, 1.6670526161013293E9, 0.0, 2022-10-29 16:10:16.101
40.0, 5284.6020540883765, -2215.3503082026727, -2120.4148177774623, -985.5403062733822, 0.0, 0.01600000075995922, 0.8800000417977571, 0.0, 0.0, 0.0, 0.0, 0.0, 1.6670526161013293E9, 0.0, 2022-10-29 16:10:16.101
41.0, 5348.298160183709, -2112.456310671754, -2125.4674226175994, -851.4555431120098, 0.0, 0.01600000075995922, 0.8800000417977571, 0.0, 0.0, 0.0, 0.0, 0.0, 1.6670526161334429E9, 0.0, 2022-10-29 16:10:16.133
41.0, 5396.430672613438, -1908.9309550831094, -2205.806083515752, -858.0583364837803, 0.0, 0.01600000075995922, 0.8800000417977571, 0.0, 0.0, 0.0, 0.0, 0.0, 1.6670526161334429E9, 0.0, 2022-10-29 16:10:16.133
42.0, 5496.693650525529, -1751.6008437471464, -2154.913524918724, -1055.5867624934763, 0.0, 0.01600000075995922, 0.8800000417977571, 0.0, 0.0, 0.0, 0.0, 0.0, 1.667052616134142E9, 0.0, 2022-10-29 16:10:16.134
42.0, 5698.571580183692, -1801.3265535579994, -2179.4958873274736, -1032.4910103171133, 0.0, 0.01600000075995922, 0.8800000417977571, 0.0, 0.0, 0.0, 0.0, 0.0, 1.667052616134142E9, 0.0, 2022-10-29 16:10:16.134
43.0, 5669.258244330995, -1793.9458609954454, -2261.1977417594753, -1014.1935497839004, 0.0, 0.01600000075995922, 0.8800000417977571, 0.0, 0.0, 0.0, 0.0, 0.0, 1.6670526161348798E9, 0.0, 2022-10-29 16:10:16.134
43.0, 5719.290625938214, -1587.0097166472115, -2359.5253214444965, -984.5735421348363, 0.0, 0.01600000075995922, 0.8800000417977571, 0.0, 0.0, 0.0, 0.0, 0.0, 1.6670526161348798E9, 0.0, 2022-10-29 16:10:16.134
44.0, 5843.877913162112, -1410.4789589387365, -2288.9197501810268, -1130.0836996608414, 0.0, 0.01600000075995922, 0.8800000417977571, 0.0, 0.0, 0.0, 0.0, 0.0, 1.6670526161356256E9, 0.0, 2022-10-29 16:10:16.135
44.0, 5701.533580948599, -1301.481444680132, -2167.8498388654552, -1051.454173042439, 0.0, 0.01600000075995922, 0.8800000417977571, 0.0, 0.0, 0.0, 0.0, 0.0, 1.6670526161356256E9, 0.0, 2022-10-29 16:10:16.135
45.0, 5843.0308258221485, -1123.3481398406439, -2086.501404979266, -884.3498331722803, 0.0, 0.01600000075995922, 0.8800000417977571, 0.0, 0.0, 0.0, 0.0, 0.0, 1.6670526161463747E9, 0.0, 2022-10-29 16:10:16.146
45.0, 5975.187670556363, -1303.5458694556728, -2084.40706100408, -798.4929498895071, 0.0, 0.01600000075995922, 0.8800000417977571, 0.0, 0.0, 0.0, 0.0, 0.0, 1.6670526161463747E9, 0.0, 2022-10-29 16:10:16.146
46.0, 6156.5578588075, -1065.7069317735732, -1957.8151874039322, -908.3917800374329, 0.0, 0.01600000075995922, 0.8800000417977571, 0.0, 0.0, 0.0, 0.0, 0.0, 1.6670526161614733E9, 0.0, 2022-10-29 16:10:16.161
46.0, 6054.230456119869, -912.1709489426576, -1787.9657609662972, -810.7560818442143, 0.0, 0.01600000075995922, 0.8800000417977571, 0.0, 0.0, 0.0, 0.0, 0.0, 1.6670526161614733E9, 0.0, 2022-10-29 16:10:16.161
47.0, 6228.276050307788, -690.950256713666, -1659.546946237795, -597.879106416367, 0.0, 0.01600000075995922, 0.8800000417977571, 0.0, 0.0, 0.0, 0.0, 0.0, 1.6670526161770227E9, 0.0, 2022-10-29 16:10:16.177
47.0, 6363.884822701104, -874.7607296858914, -1667.8401743895374, -521.3869326226413, 0.0, 0.01600000075995922, 0.8800000417977571, 0.0, 0.0, 0.0, 0.0, 0.0, 1.6670526161770227E9, 0.0, 2022-10-29 16:10:16.177
48.0, 6536.073556561023, -643.2983214282431, -1553.7620060411282, -663.1908492925577, 0.0, 0.01600000075995922, 0.8800000417977571, 0.0, 0.0, 0.0, 0.0, 0.0, 1.6670526161777585E9, 0.0, 2022-10-29 16:10:16.177
48.0, 6447.939074205235, -476.53431245405227, -1366.402368010953, -584.142453879118, 0.0, 0.01600000075995922, 0.8800000417977571, 0.0, 0.0, 0.0, 0.0, 0.0, 1.6670526161777585E9, 0.0, 2022-10-29 16:10:16.177
49.0, 6626.446369040292, -263.68725622585043, -1231.820198155474, -384.99091128865257, 0.0, 0.01600000075995922, 0.8800000417977571, 0.0, 0.0, 0.0, 0.0, 0.0, 1.6670526161914537E9, 0.0, 2022-10-29 16:10:16.191
49.0, 6780.911717010196, -427.3097492372617, -1222.193695669528, -269.3345051589422, 0.0, 0.01600000075995922, 0.8800000417977571, 0.0, 0.0, 0.0, 0.0, 0.0, 1.6670526161914537E9, 0.0, 2022-10-29 16:10:16.191
50.0, 6953.253786768299, -190.58904164191335, -1099.4950579232536, -470.86836402118206, 0.0, 0.01600000075995922, 0.944000044837594, 0.0, 0.0, 0.0, 0.0, 0.0, 1.6670526162070832E9, 0.0, 2022-10-29 16:10:16.207
50.0, 6890.247692214791, 4.871219692286104, -890.9526265440509, -400.15994550893083, 0.0, 0.01600000075995922, 0.944000044837594, 0.0, 0.0, 0.0, 0.0, 0.0, 1.6670526162070832E9, 0.0, 2022-10-29 16:10:16.207
51.0, 7082.794571483508, 235.84183110576123, -740.4160434775986, -606.2920113666914, 0.0, 0.03200000151991844, 0.944000044837594, 0.0, 0.0, 0.0, 0.0, 0.0, 1.6670526162077584E9, 0.0, 2022-10-29 16:10:16.207
51.0, 7280.171531544998, 125.04916486842558, -683.5845237509347, -489.1396452547051, 0.0, 0.03200000151991844, 0.944000044837594, 0.0, 0.0, 0.0, 0.0, 0.0, 1.6670526162077584E9, 0.0, 2022-10-29 16:10:16.207
52.0, 7065.132893942762, -31.01125043258071, -478.86240017646924, -601.6564053716138, 0.0, 0.03200000151991844, 0.944000044837594, 0.0, 0.0, 0.0, 0.0, 0.0, 1.6670526162213635E9, 0.0, 2022-10-29 16:10:16.221
52.0, 6980.166106849443, 135.87243534019217, -273.4951438596472, -481.2147972485982, 0.0, 0.03200000151991844, 0.944000044837594, 0.0, 0.0, 0.0, 0.0, 0.0, 1.6670526162213635E9, 0.0, 2022-10-29 16:10:16.221
53.0, 7017.772670853883, 201.01588271837682, -288.37994568329304, -315.71861435938627, 0.0, 0.03200000151991844, 0.944000044837594, 0.0, 0.0, 0.0, 0.0, 0.0, 1.6670526162372267E9, 0.0, 2022-10-29 16:10:16.237
53.0, 6995.264082970563, 347.2384911859408, -455.4169673542492, -280.6944512743503, 0.0, 0.03200000151991844, 0.944000044837594, 0.0, 0.0, 0.0, 0.0, 0.0, 1.6670526162372267E9, 0.0, 2022-10-29 16:10:16.237
54.0, 7063.801489558537, 464.4058168977499, -445.28557837428525, -50.97109649609774, 0.0, 0.03200000151991844, 0.944000044837594, 0.0, 0.0, 0.0, 0.0, 0.0, 1.667052616237759E9, 0.0, 2022-10-29 16:10:16.237
54.0, 7266.173086010851, 412.06965691782534, -463.9028003537096, -95.81249696481973, 0.0, 0.03200000151991844, 0.944000044837594, 0.0, 0.0, 0.0, 0.0, 0.0, 1.667052616237759E9, 0.0, 2022-10-29 16:10:16.237
55.0, 7166.818903787993, 334.0142049426213, -610.7499721138738, -52.349249629769474, 0.0, 0.03200000151991844, 0.944000044837594, 0.0, 0.0, 0.0, 0.0, 0.0, 1.6670526162514884E9, 0.0, 2022-10-29 16:10:16.251
55.0, 7156.981096954551, 476.98684034869075, -785.0648390986025, -23.237868374679238, 0.0, 0.03200000151991844, 0.944000044837594, 0.0, 0.0, 0.0, 0.0, 0.0, 1.6670526162514884E9, 0.0, 2022-10-29 16:10:16.251
56.0, 7239.157918680925, 614.0242545250803, -768.7401757920161, -245.38605579268187, 0.0, 0.03200000151991844, 0.944000044837594, 0.0, 0.0, 0.0, 0.0, 0.0, 1.6670526162668605E9, 0.0, 2022-10-29 16:10:16.266
56.0, 7458.213208835572, 577.2946970602497, -765.3873554817401, -298.5861326623708, 0.0, 0.03200000151991844, 0.944000044837594, 0.0, 0.0, 0.0, 0.0, 0.0, 1.6670526162668605E9, 0.0, 2022-10-29 16:10:16.266
57.0, 7372.053393656388, 511.5397760393098, -894.9449697467498, -200.26977267721668, 0.0, 0.03200000151991844, 0.944000044837594, 0.0, 0.0, 0.0, 0.0, 0.0, 1.667052616282092E9, 0.0, 2022-10-29 16:10:16.282
57.0, 7389.421489050612, 674.8425076045096, -1032.1488094711676, -137.69002671865746, 0.0, 0.03200000151991844, 0.944000044837594, 0.0, 0.0, 0.0, 0.0, 0.0, 1.667052616282092E9, 0.0, 2022-10-29 16:10:16.282
58.0, 7535.472062120214, 860.6631768029183, -963.9255544794723, -337.4175139022991, 0.0, 0.03200000151991844, 0.944000044837594, 0.0, 0.0, 0.0, 0.0, 0.0, 1.6670526162827868E9, 0.0, 2022-10-29 16:10:16.282
58.0, 7769.902080992702, 851.2685481142253, -941.8769742907025, -399.64944916497916, 0.0, 0.03200000151991844, 0.944000044837594, 0.0, 0.0, 0.0, 0.0, 0.0, 1.6670526162827868E9, 0.0, 2022-10-29 16:10:16.282
59.0, 7720.176371181849, 820.3470552805811, -1045.0645539681427, -332.89410490589216, 0.0, 0.03200000151991844, 0.944000044837594, 0.0, 0.0, 0.0, 0.0, 0.0, 1.6670526162970076E9, 0.0, 2022-10-29 16:10:16.297
59.0, 7748.767906343099, 1011.1156121203676, -1169.5564737431705, -270.54249284463003, 0.0, 0.03200000151991844, 0.944000044837594, 0.0, 0.0, 0.0, 0.0, 0.0, 1.6670526162970076E9, 0.0, 2022-10-29 16:10:16.297
60.0, 7910.761672923807, 1227.9288322515786, -1085.5022222390398, -32.965348159428686, 0.0, 0.03200000151991844, 0.9760000463575125, 0.0, 0.0, 0.0, 0.0, 0.0, 1.6670526162977233E9, 0.0, 2022-10-29 16:10:16.297
60.0, 7669.994393576402, 1232.4148422484286, -1053.972995662596, -79.51588290790096, 0.0, 0.03200000151991844, 0.9760000463575125, 0.0, 0.0, 0.0, 0.0, 0.0, 1.6670526162977233E9, 0.0, 2022-10-29 16:10:16.297
61.0, 7600.002165905666, 1181.249270954635, -1172.1500943624415, 37.54859555512667, 0.0, 0.03200000151991844, 0.9760000463575125, 0.0, 0.0, 0.0, 0.0, 0.0, 1.6670526163114853E9, 0.0, 2022-10-29 16:10:16.311
61.0, 7619.935832669493, 1362.2492091101594, -1310.3150883754715, 159.14022291451693, 0.0, 0.03200000151991844, 0.9760000463575125, 0.0, 0.0, 0.0, 0.0, 0.0, 1.6670526163114853E9, 0.0, 2022-10-29 16:10:16.311
62.0, 7817.727921626065, 1605.4997820281424, -1178.7828069338575, -0.016829549800604582, 0.0, 0.03200000151991844, 0.9760000463575125, 0.0, 0.0, 0.0, 0.0, 0.0, 1.6670526163270507E9, 0.0, 2022-10-29 16:10:16.327
62.0, 7586.979834259953, 1622.8622675724328, -1125.4387439158745, -25.421969948802143, 0.0, 0.03200000151991844, 0.9760000463575125, 0.0, 0.0, 0.0, 0.0, 0.0, 1.6670526163270507E9, 0.0, 2022-10-29 16:10:16.327
63.0, 7498.695755905937, 1550.7420368269086, -1280.966223473195, 53.85829926189035, 0.0, 0.03200000151991844, 0.9760000463575125, 0.0, 0.0, 0.0, 0.0, 0.0, 1.6670526163277247E9, 0.0, 2022-10-29 16:10:16.327
63.0, 7537.5495765456, 1746.1929484112188, -1397.832487238571, 128.00181588344276, 0.0, 0.03200000151991844, 0.9760000463575125, 0.0, 0.0, 0.0, 0.0, 0.0, 1.6670526163277247E9, 0.0, 2022-10-29 16:10:16.327
64.0, 7761.1806342960335, 1538.013287327718, -1233.7518564825878, -19.89439781429246, 0.0, 0.03200000151991844, 0.9760000463575125, 0.0, 0.0, 0.0, 0.0, 0.0, 1.6670526163413672E9, 0.0, 2022-10-29 16:10:16.341
64.0, 7527.313470366877, 1544.006477006711, -1212.858905380126, -63.9018005928956, 0.0, 0.03200000151991844, 0.9760000463575125, 0.0, 0.0, 0.0, 0.0, 0.0, 1.6670526163413672E9, 0.0, 2022-10-29 16:10:16.341
65.0, 7436.1608887468465, 1471.886246261187, -1346.1078009014018, 8.108103103935719, 0.0, 0.03200000151991844, 0.9760000463575125, 0.0, 0.0, 0.0, 0.0, 0.0, 1.667052616356878E9, 0.0, 2022-10-29 16:10:16.356
65.0, 7455.492431617808, 1650.3393125468865, -1484.9534567063674, 103.78222377039492, 0.0, 0.03200000151991844, 0.9760000463575125, 0.0, 0.0, 0.0, 0.0, 0.0, 1.667052616356878E9, 0.0, 2022-10-29 16:10:16.356
66.0, 7700.160426618997, 1453.312033131253, -1325.6299786940217, -39.91408227710053, 0.0, 0.03200000151991844, 0.9760000463575125, 0.0, 0.0, 0.0, 0.0, 0.0, 1.6670526163721445E9, 0.0, 2022-10-29 16:10:16.372
66.0, 7461.779203443322, 1463.6023678593338, -1285.9066313146614, -25.74921119492501, 0.0, 0.03200000151991844, 0.9760000463575125, 0.0, 0.0, 0.0, 0.0, 0.0, 1.6670526163721445E9, 0.0, 2022-10-29 16:10:16.372
67.0, 7357.2116006822325, 1372.1954730423167, -1446.4567965124734, 52.730719425249845, 0.0, 0.03200000151991844, 0.9760000463575125, 0.0, 0.0, 0.0, 0.0, 0.0, 1.6670526163727567E9, 0.0, 2022-10-29 16:10:16.372
67.0, 7418.863851451781, 1584.771386523731, -1530.486738666892, 165.3166676913388, 0.0, 0.03200000151991844, 0.9760000463575125, 0.0, 0.0, 0.0, 0.0, 0.0, 1.6670526163727567E9, 0.0, 2022-10-29 16:10:16.372
68.0, 7186.475817955099, 1403.3656692230143, -1345.9226758535951, 36.392966468818486, 0.0, 0.03200000151991844, 0.9760000463575125, 0.0, 0.0, 0.0, 0.0, 0.0, 1.6670526163871005E9, 0.0, 2022-10-29 16:10:16.387
68.0, 6943.120527838357, 1421.7940262546763, -1309.441821735818, 85.20427074050531, 0.0, 0.03200000151991844, 0.9760000463575125, 0.0, 0.0, 0.0, 0.0, 0.0, 1.6670526163871005E9, 0.0, 2022-10-29 16:10:16.387
69.0, 6817.007361432537, 1322.286508133635, -1492.1770734707825, 107.91481322143227, 0.0, 0.03200000151991844, 0.9760000463575125, 0.0, 0.0, 0.0, 0.0, 0.0, 1.667052616387848E9, 0.0, 2022-10-29 16:10:16.387
69.0, 6899.4646756555885, 1549.941698236391, -1552.8737798016518, 204.03024208266288, 0.0, 0.03200000151991844, 0.9760000463575125, 0.0, 0.0, 0.0, 0.0, 0.0, 1.667052616387848E9, 0.0, 2022-10-29 16:10:16.387
70.0, 6662.70095921075, 1358.3634530561976, -1372.2665311414748, 48.94968057004735, 0.0, 0.03200000151991844, 0.9920000471174717, 0.0, 0.0, 0.0, 0.0, 0.0, 1.6670526164014492E9, 0.0, 2022-10-29 16:10:16.401
70.0, 6426.829208905343, 1393.4343648906797, -1327.6663542198949, 112.72432456444949, 0.0, 0.03200000151991844, 0.9920000471174717, 0.0, 0.0, 0.0, 0.0, 0.0, 1.6670526164014492E9, 0.0, 2022-10-29 16:10:16.401
71.0, 6296.8826450449415, 1282.6248691035435, -1512.649285828229, 191.95223517576233, 0.0, 0.03200000151991844, 0.9920000471174717, 0.0, 0.0, 0.0, 0.0, 0.0, 1.6670526164171712E9, 0.0, 2022-10-29 16:10:16.417
71.0, 6349.0804287265055, 1483.9511635182425, -1602.8575427094474, 251.64477836852893, 0.0, 0.03200000151991844, 0.9920000471174717, 0.0, 0.0, 0.0, 0.0, 0.0, 1.6670526164171712E9, 0.0, 2022-10-29 16:10:16.417
72.0, 6135.489132407121, 1324.6033761561848, -1395.3940724674612, 113.22921105846763, 0.0, 0.03200000151991844, 0.9920000471174717, 0.0, 0.0, 0.0, 0.0, 0.0, 1.6670526164177403E9, 0.0, 2022-10-29 16:10:16.417
72.0, 6348.336188635323, 1324.6837840052322, -1397.7202902399004, 168.9518504482694, 0.0, 0.03200000151991844, 0.9920000471174717, 0.0, 0.0, 0.0, 0.0, 0.0, 1.6670526164177403E9, 0.0, 2022-10-29 16:10:16.417
73.0, 6206.212510519195, 1224.402106593363, -1572.698989466764, 213.19299697410315, 0.0, 0.03200000151991844, 0.9920000471174717, 0.0, 0.0, 0.0, 0.0, 0.0, 1.6670526164478085E9, 0.0, 2022-10-29 16:10:16.447
73.0, 6261.065623169299, 1433.268039318733, -1649.840035902802, 260.1624005176127, 0.0, 0.03200000151991844, 0.9920000471174717, 0.0, 0.0, 0.0, 0.0, 0.0, 1.6670526164478085E9, 0.0, 2022-10-29 16:10:16.447
74.0, 6077.157912798226, 1314.4271083767526, -1421.388247109484, 115.34038458345458, 0.0, 0.03200000151991844, 0.9920000471174717, 0.0, 0.0, 0.0, 0.0, 0.0, 1.6670526164484854E9, 0.0, 2022-10-29 16:10:16.448
74.0, 6298.240228728857, 1316.0034762080759, -1402.8289935793728, 144.184362991713, 0.0, 0.03200000151991844, 0.9920000471174717, 0.0, 0.0, 0.0, 0.0, 0.0, 1.6670526164484854E9, 0.0, 2022-10-29 16:10:16.448
75.0, 6125.206277478952, 1187.5416526300833, -1613.2208054866642, 156.15765269985422, 0.0, 0.03200000151991844, 0.9920000471174717, 0.0, 0.0, 0.0, 0.0, 0.0, 1.667052616449227E9, 0.0, 2022-10-29 16:10:16.449
75.0, 6193.025623275433, 1403.090786576271, -1698.840205122251, 239.0226160180755, 0.0, 0.03200000151991844, 0.9920000471174717, 0.0, 0.0, 0.0, 0.0, 0.0, 1.667052616449227E9, 0.0, 2022-10-29 16:10:16.449
76.0, 5995.500937165692, 1270.894672892522, -1463.6416368088685, 94.02108488604426, 0.0, 0.03200000151991844, 0.9920000471174717, 0.0, 0.0, 0.0, 0.0, 0.0, 1.66705261646137E9, 0.0, 2022-10-29 16:10:16.461
76.0, 5752.063369249925, 1304.2639302471653, -1422.97957454063, 93.62839539069682, 0.0, 0.03200000151991844, 0.9920000471174717, 0.0, 0.0, 0.0, 0.0, 0.0, 1.66705261646137E9, 0.0, 2022-10-29 16:10:16.461
77.0, 5568.340783926658, 1167.959536462091, -1636.5203822106123, 109.85395134845749, 0.0, 0.03200000151991844, 0.9920000471174717, 0.0, 0.0, 0.0, 0.0, 0.0, 1.667052616477088E9, 0.0, 2022-10-29 16:10:16.477
77.0, 5651.6769746392965, 934.4495329787023, -1698.0548261315562, 200.49042677460238, 0.0, 0.03200000151991844, 0.9920000471174717, 0.0, 0.0, 0.0, 0.0, 0.0, 1.667052616477088E9, 0.0, 2022-10-29 16:10:16.477
78.0, 5457.177867593709, 814.8830614453182, -1453.697242826689, 70.58313186373562, 0.0, 0.03200000151991844, 0.9920000471174717, 0.0, 0.0, 0.0, 0.0, 0.0, 1.6670526164778597E9, 0.0, 2022-10-29 16:10:16.477
78.0, 5224.16340085445, 856.240745105315, -1389.8328412333503, 95.2870410210453, 0.0, 0.03200000151991844, 0.9920000471174717, 0.0, 0.0, 0.0, 0.0, 0.0, 1.6670526164778597E9, 0.0, 2022-10-29 16:10:16.477
79.0, 5038.402570055332, 708.2828230583109, -1622.028269882314, 87.82594060944393, 0.0, 0.03200000151991844, 0.9920000471174717, 0.0, 0.0, 0.0, 0.0, 0.0, 1.6670526164914048E9, 0.0, 2022-10-29 16:10:16.491
79.0, 5115.904516837094, 940.9793983013369, -1701.301059293095, 154.77762961620465, 0.0, 0.03200000151991844, 0.9920000471174717, 0.0, 0.0, 0.0, 0.0, 0.0, 1.6670526164914048E9, 0.0, 2022-10-29 16:10:16.491
80.0, 4948.792697167024, 817.2204989176244, -1936.0078307623044, -16.50417850445956, 0.0, 0.03200000151991844, 0.9920000471174717, 0.0, 0.0, 0.0, 0.0, 0.0, 1.6670526165070784E9, 0.0, 2022-10-29 16:10:16.507
80.0, 4736.852566678077, 891.1527111916803, -1855.8524249619804, 27.23208152735606, 0.0, 0.03200000151991844, 0.9920000471174717, 0.0, 0.0, 0.0, 0.0, 0.0, 1.6670526165070784E9, 0.0, 2022-10-29 16:10:16.507
81.0, 4564.035529625602, 727.0608607358299, -2075.1339790639468, 18.233882233966142, 0.0, 0.03200000151991844, 0.9920000471174717, 0.0, 0.0, 0.0, 0.0, 0.0, 1.6670526165078163E9, 0.0, 2022-10-29 16:10:16.507
81.0, 4647.861647232436, 958.9084786889143, -2156.392655351199, 107.46789517672732, 0.0, 0.03200000151991844, 0.9920000471174717, 0.0, 0.0, 0.0, 0.0, 0.0, 1.6670526165078163E9, 0.0, 2022-10-29 16:10:16.507
82.0, 4481.157476657536, 856.3772514536977, -2390.1345326318406, -36.905332762748, 0.0, 0.03200000151991844, 0.9920000471174717, 0.0, 0.0, 0.0, 0.0, 0.0, 1.6670526165214107E9, 0.0, 2022-10-29 16:10:16.521
82.0, 4274.326049508061, 896.6840232261457, -2315.2972645685077, 33.010226958896965, 0.0, 0.03200000151991844, 0.9920000471174717, 0.0, 0.0, 0.0, 0.0, 0.0, 1.6670526165214107E9, 0.0, 2022-10-29 16:10:16.521
83.0, 4093.382209851872, 738.5947121991776, -2543.1357097690925, 56.33785293251276, 0.0, 0.03200000151991844, 0.9920000471174717, 0.0, 0.0, 0.0, 0.0, 0.0, 1.667052616537172E9, 0.0, 2022-10-29 16:10:16.537
83.0, 4154.4173771287315, 939.3675014204346, -2636.5341013125144, 143.89265079516917, 0.0, 0.03200000151991844, 0.9920000471174717, 0.0, 0.0, 0.0, 0.0, 0.0, 1.667052616537172E9, 0.0, 2022-10-29 16:10:16.537
84.0, 4004.4679583553225, 839.1811914574355, -2395.8304002643563, 13.723562887404114, 0.0, 0.03200000151991844, 0.9920000471174717, 0.0, 0.0, 0.0, 0.0, 0.0, 1.6670526165378616E9, 0.0, 2022-10-29 16:10:16.537
84.0, 3804.6002249233425, 895.9061240353622, -2302.132816724479, 136.50260848272592, 0.0, 0.03200000151991844, 0.9920000471174717, 0.0, 0.0, 0.0, 0.0, 0.0, 1.6670526165378616E9, 0.0, 2022-10-29 16:10:16.537
85.0, 3614.254276778549, 726.4549969430082, -2540.596317699179, 124.0599613301456, 0.0, 0.03200000151991844, 0.9920000471174717, 0.0, 0.0, 0.0, 0.0, 0.0, 1.667052616551446E9, 0.0, 2022-10-29 16:10:16.551
85.0, 3672.626635286957, 931.4052544147708, -2637.8505460969172, 183.47575192619115, 0.0, 0.03200000151991844, 0.9920000471174717, 0.0, 0.0, 0.0, 0.0, 0.0, 1.667052616551446E9, 0.0, 2022-10-29 16:10:16.551
86.0, 3506.8836190006696, 817.0372438197955, -2877.823096703738, 44.4094420238398, 0.0, 0.03200000151991844, 0.9920000471174717, 0.0, 0.0, 0.0, 0.0, 0.0, 1.6670526165671659E9, 0.0, 2022-10-29 16:10:16.567
86.0, 3345.0319686182775, 924.2358661997132, -2764.4012807975523, 181.05603665485978, 0.0, 0.03200000151991844, 0.9920000471174717, 0.0, 0.0, 0.0, 0.0, 0.0, 1.6670526165671659E9, 0.0, 2022-10-29 16:10:16.567
87.0, 3114.71396974707, 706.5923882783391, -2551.557964469306, 136.3268331848085, 0.0, 0.03200000151991844, 0.9920000471174717, 0.0, 0.0, 0.0, 0.0, 0.0, 1.66705261656787E9, 0.0, 2022-10-29 16:10:16.567
87.0, 3140.84091083752, 885.6176592572592, -2669.852870017756, 99.55426687048748, 0.0, 0.03200000151991844, 0.9920000471174717, 0.0, 0.0, 0.0, 0.0, 0.0, 1.66705261656787E9, 0.0, 2022-10-29 16:10:16.567
88.0, 2994.605212720111, 783.093911821954, -2906.227636867203, -100.98103870358318, 0.0, 0.03200000151991844, 0.9920000471174717, 0.0, 0.0, 0.0, 0.0, 0.0, 1.6670526165814118E9, 0.0, 2022-10-29 16:10:16.581
88.0, 2849.807506135665, 902.9184364522807, -2769.326729039196, 54.89986139954999, 0.0, 0.03200000151991844, 0.9920000471174717, 0.0, 0.0, 0.0, 0.0, 0.0, 1.6670526165814118E9, 0.0, 2022-10-29 16:10:16.581
89.0, 2639.1726007312536, 710.006916937884, -2542.85147737246, 22.164517087396234, 0.0, 0.03200000151991844, 0.9920000471174717, 0.0, 0.0, 0.0, 0.0, 0.0, 1.6670526166134295E9, 0.0, 2022-10-29 16:10:16.613
89.0, 2642.026144397445, 871.0432691299357, -2687.639834207017, 66.66558666015044, 0.0, 0.03200000151991844, 0.9920000471174717, 0.0, 0.0, 0.0, 0.0, 0.0, 1.6670526166134295E9, 0.0, 2022-10-29 16:10:16.613
90.0, 2489.1857829582877, 765.9689099248499, -2922.062373279594, -62.09729886427522, 0.0, 0.03200000151991844, 0.9920000471174717, 0.0, 0.0, 0.0, 0.0, 0.0, 1.6670526166141744E9, 0.0, 2022-10-29 16:10:16.614
90.0, 2376.670892791357, 920.5333652435802, -2756.0276447967626, 155.03194281319156, 0.0, 0.03200000151991844, 0.9920000471174717, 0.0, 0.0, 0.0, 0.0, 0.0, 1.6670526166141744E9, 0.0, 2022-10-29 16:10:16.614
91.0, 2131.8570416918956, 693.4092409345321, -2551.4195881709456, 143.65890704793856, 0.0, 0.03200000151991844, 0.9920000471174717, 0.0, 0.0, 0.0, 0.0, 0.0, 1.6670526166148987E9, 0.0, 2022-10-29 16:10:16.614
91.0, 2117.707130209543, 824.6011914801784, -2718.8792185368948, 109.58280860166997, 0.0, 0.03200000151991844, 0.9920000471174717, 0.0, 0.0, 0.0, 0.0, 0.0, 1.6670526166148987E9, 0.0, 2022-10-29 16:10:16.614
92.0, 1969.238711818587, 729.9461935516447, -2954.4050280964, -83.95514415530488, 0.0, 0.03200000151991844, 0.9920000471174717, 0.0, 0.0, 0.0, 0.0, 0.0, 1.6670526166156826E9, 0.0, 2022-10-29 16:10:16.615
92.0, 1888.613948573824, 912.8740501343273, -2755.829430099111, -315.77658280869946, 0.0, 0.03200000151991844, 0.9920000471174717, 0.0, 0.0, 0.0, 0.0, 0.0, 1.6670526166156826E9, 0.0, 2022-10-29 16:10:16.615
93.0, 1655.7902167323045, 702.9646853213198, -2547.1411426216364, -326.48391638183966, 0.0, 0.03200000151991844, 0.9920000471174717, 0.0, 0.0, 0.0, 0.0, 0.0, 1.6670526166263769E9, 0.0, 2022-10-29 16:10:16.626
93.0, 1624.9416519477963, 830.383076811675, -2710.326067338232, -366.86548615340143, 0.0, 0.03200000151991844, 0.9920000471174717, 0.0, 0.0, 0.0, 0.0, 0.0, 1.6670526166263769E9, 0.0, 2022-10-29 16:10:16.626
94.0, 1498.5723023950122, 762.22900996916, -2925.4170635398477, -557.7593296417035, 0.0, 0.03200000151991844, 0.9920000471174717, 0.0, 0.0, 0.0, 0.0, 0.0, 1.6670526166413708E9, 0.0, 2022-10-29 16:10:16.641
94.0, 1451.8123332490213, 969.6307718618773, -2700.654686052818, -774.5089714736678, 0.0, 0.03200000151991844, 0.9920000471174717, 0.0, 0.0, 0.0, 0.0, 0.0, 1.6670526166413708E9, 0.0, 2022-10-29 16:10:16.641
95.0, 1218.2069623167627, 760.7311800369062, -2493.2155251605436, -822.2375747081824, 0.0, 0.03200000151991844, 0.9920000471174717, 0.0, 0.0, 0.0, 0.0, 0.0, 1.6670526166570253E9, 0.0, 2022-10-29 16:10:16.657
95.0, 1137.9243999179453, 833.1431229789741, -2712.5026891124435, -899.9171667378396, 0.0, 0.03200000151991844, 0.9920000471174717, 0.0, 0.0, 0.0, 0.0, 0.0, 1.6670526166570253E9, 0.0, 2022-10-29 16:10:16.657
96.0, 996.8348041395657, 746.8580211512744, -2931.3298453697935, -1067.1262238067575, 0.0, 0.03200000151991844, 0.9920000471174717, 0.0, 0.0, 0.0, 0.0, 0.0, 1.667052616657755E9, 0.0, 2022-10-29 16:10:16.657
96.0, 943.4514721720479, 958.1268395981751, -2698.8520542741753, -1271.4706174856983, 0.0, 0.03200000151991844, 0.9920000471174717, 0.0, 0.0, 0.0, 0.0, 0.0, 1.667052616657755E9, 0.0, 2022-10-29 16:10:16.657
97.0, 1153.4823837336153, 1187.4556349311024, -2538.030746329576, -1339.9407058744691, 0.0, 0.03200000151991844, 0.9920000471174717, 0.0, 0.0, 0.0, 0.0, 0.0, 1.667052616687763E9, 0.0, 2022-10-29 16:10:16.687
97.0, 1076.805084892083, 1266.143129998818, -2759.5618502548896, -1404.3137338617817, 0.0, 0.03200000151991844, 0.9920000471174717, 0.0, 0.0, 0.0, 0.0, 0.0, 1.667052616687763E9, 0.0, 2022-10-29 16:10:16.687
98.0, 935.3078400185332, 1186.339274794329, -2987.5106225041673, -1579.2419444392435, 0.0, 0.03200000151991844, 0.9920000471174717, 0.0, 0.0, 0.0, 0.0, 0.0, 1.667052616688555E9, 0.0, 2022-10-29 16:10:16.688
98.0, 928.5573205985129, 1428.5595052745193, -3207.641133896075, -1758.16623811936, 0.0, 0.03200000151991844, 0.9920000471174717, 0.0, 0.0, 0.0, 0.0, 0.0, 1.667052616688555E9, 0.0, 2022-10-29 16:10:16.688
99.0, 1121.8933187578805, 1660.0237834821455, -3043.3716381923296, -1867.0235061296262, 0.0, 0.03200000151991844, 0.9920000471174717, 0.0, 0.0, 0.0, 0.0, 0.0, 1.6670526166893363E9, 0.0, 2022-10-29 16:10:16.689
99.0, 1045.5488710124046, 1734.28697690228, -3260.5494985692203, -1979.985314341262, 0.0, 0.03200000151991844, 0.9920000471174717, 0.0, 0.0, 0.0, 0.0, 0.0, 1.6670526166893363E9, 0.0, 2022-10-29 16:10:16.689
100.0, 924.9202678916045, 1674.9927330547944, -3462.891175821889, -1765.475872582756, 0.0, 0.03200000151991844, 0.9920000471174717, 0.0, 0.0, 0.0, 0.0, 0.0, 1.6670526167185383E9, 0.0, 2022-10-29 16:10:16.718
100.0, 921.4122417331673, 1448.62032863684, -3693.8112985859625, -1920.8574960418046, 0.0, 0.03200000151991844, 0.9920000471174717, 0.0, 0.0, 0.0, 0.0, 0.0, 1.6670526167185383E9, 0.0, 2022-10-29 16:10:16.718
0.0, -4283.2475808523595, -4231.438746766187, -4029.620655507315, -2918.3860516231507, 0.0, 0.03200000151991844, 0.9920000471174717, 0.0, 0.0, 0.0, 0.0, 0.0, 1.6670526167191925E9, 0.0, 2022-10-29 16:10:16.719
1.0, -4401.153536805417, -4161.925226289779, -4265.655091460794, -3004.300903355237, 0.0, 0.03200000151991844, 0.9920000471174717, 0.0, 0.0, 0.0, 0.0, 0.0, 1.667052616719947E9, 0.0, 2022-10-29 16:10:16.719
1.0, -4533.226233790629, -4216.9746836875565, -4468.610112306196, -3149.728783082217, 0.0, 0.03200000151991844, 0.9920000471174717, 0.0, 0.0, 0.0, 0.0, 0.0, 1.667052616719947E9, 0.0, 2022-10-29 16:10:16.719
2.0, -4559.93285937421, -3983.8947686990723, -4225.413767937571, -3293.782249575481, 0.0, 0.03200000151991844, 0.9920000471174717, 0.0, 0.0, 0.0, 0.0, 0.0, 1.66705261672072E9, 0.0, 2022-10-29 16:10:16.720
2.0, -4383.561047413852, -3750.7737148110755, -4067.128112162929, -3381.3968858374283, 0.0, 0.03200000151991844, 0.9920000471174717, 0.0, 0.0, 0.0, 0.0, 0.0, 1.66705261672072E9, 0.0, 2022-10-29 16:10:16.720
3.0, -4503.01158204861, -3703.886589066591, -4312.213106009178, -3494.384873348754, 0.0, 0.03200000151991844, 0.9920000471174717, 0.0, 0.0, 0.0, 0.0, 0.0, 1.6670526167314537E9, 0.0, 2022-10-29 16:10:16.731
3.0, -4609.050835442264, -3732.797885674052, -4480.132744069677, -3633.537200950086, 0.0, 0.03200000151991844, 0.9920000471174717, 0.0, 0.0, 0.0, 0.0, 0.0, 1.6670526167314537E9, 0.0, 2022-10-29 16:10:16.731
4.0, -4599.699215603061, -3963.41881644167, -4688.0487422063015, -3770.944865222089, 0.0, 0.03200000151991844, 0.9920000471174717, 0.0, 0.0, 0.0, 0.0, 0.0, 1.667052616746374E9, 0.0, 2022-10-29 16:10:16.746
4.0, -4454.742563270498, -3765.7557540335692, -4554.409027139656, -3886.2272813562304, 0.0, 0.03200000151991844, 0.9920000471174717, 0.0, 0.0, 0.0, 0.0, 0.0, 1.667052616746374E9, 0.0, 2022-10-29 16:10:16.746
5.0, -4563.033236437477, -3690.318232027348, -4783.7976608718745, -3987.5206017061137, 0.0, 0.03200000151991844, 0.9920000471174717, 0.0, 0.0, 0.0, 0.0, 0.0, 1.6670526167621508E9, 0.0, 2022-10-29 16:10:16.762
5.0, -4619.46645681886, -3663.6864044428803, -4910.638237819076, -4096.271282567643, 0.0, 0.03200000151991844, 0.9920000471174717, 0.0, 0.0, 0.0, 0.0, 0.0, 1.6670526167621508E9, 0.0, 2022-10-29 16:10:16.762
6.0, -4477.071635955945, -3747.280648252461, -4981.471942979842, -4150.832683021203, 0.0, 0.03200000151991844, 0.9920000471174717, 0.0, 0.0, 0.0, 0.0, 0.0, 1.6670526167628596E9, 0.0, 2022-10-29 16:10:16.762
6.0, -4343.267365291249, -3579.978093684651, -4870.1519508487545, -4249.337907954119, 0.0, 0.03200000151991844, 0.9920000471174717, 0.0, 0.0, 0.0, 0.0, 0.0, 1.6670526167628596E9, 0.0, 2022-10-29 16:10:16.762
7.0, -4153.284187442157, -3712.9296671594493, -4827.921000549104, -4487.410589383449, 0.0, 0.03200000151991844, 0.9920000471174717, 0.0, 0.0, 0.0, 0.0, 0.0, 1.6670526167764504E9, 0.0, 2022-10-29 16:10:16.776
7.0, -4244.663033009507, -3738.078624411486, -5004.831358103082, -4652.267249380238, 0.0, 0.03200000151991844, 0.9920000471174717, 0.0, 0.0, 0.0, 0.0, 0.0, 1.6670526167764504E9, 0.0, 2022-10-29 16:10:16.776
8.0, -4155.673983513843, -3890.741340602748, -5135.155651859008, -4740.71962323226, 0.0, 0.03200000151991844, 0.9920000471174717, 0.0, 0.0, 0.0, 0.0, 0.0, 1.6670526167920647E9, 0.0, 2022-10-29 16:10:16.792
8.0, -4019.8838259726763, -3712.933407059405, -5021.322446957696, -4852.995159802027, 0.0, 0.03200000151991844, 0.9920000471174717, 0.0, 0.0, 0.0, 0.0, 0.0, 1.6670526167920647E9, 0.0, 2022-10-29 16:10:16.792
9.0, -4258.670828293543, -3780.750882905908, -4895.979699942749, -5042.262146809604, 0.0, 0.03200000151991844, 0.9920000471174717, 0.0, 0.0, 0.0, 0.0, 0.0, 1.6670526167927928E9, 0.0, 2022-10-29 16:10:16.792
9.0, -4290.682501964271, -3726.380217350088, -4999.056952571496, -5155.0332201235, 0.0, 0.03200000151991844, 0.9920000471174717, 0.0, 0.0, 0.0, 0.0, 0.0, 1.6670526167927928E9, 0.0, 2022-10-29 16:10:16.792
10.0, -4206.353367813397, -3879.6300978343934, -5122.836421404965, -5239.480161122978, 0.0, 0.03200000151991844, 0.9920000471174717, 0.0, 0.0, 0.0, 0.0, 0.0, 1.6670526168063493E9, 0.0, 2022-10-29 16:10:16.806
10.0, -4040.3111595306545, -3685.770513681229, -4983.904747901019, -5325.408102504909, 0.0, 0.03200000151991844, 0.9920000471174717, 0.0, 0.0, 0.0, 0.0, 0.0, 1.6670526168063493E9, 0.0, 2022-10-29 16:10:16.806
11.0, -4268.076676682103, -3739.3277509966865, -4841.250003991183, -5505.557213420514, 0.0, 0.03200000151991844, 0.9920000471174717, 0.0, 0.0, 0.0, 0.0, 0.0, 1.6670526168220727E9, 0.0, 2022-10-29 16:10:16.822
11.0, -4286.4676347142085, -3658.9535610489547, -4938.758545585908, -5609.285208641551, 0.0, 0.03200000151991844, 0.9920000471174717, 0.0, 0.0, 0.0, 0.0, 0.0, 1.6670526168220727E9, 0.0, 2022-10-29 16:10:16.822
12.0, -4288.378723591566, -3898.2622794136405, -5143.671404058114, -5733.745339266956, 0.0, 0.03200000151991844, 0.9920000471174717, 0.0, 0.0, 0.0, 0.0, 0.0, 1.667052616822806E9, 0.0, 2022-10-29 16:10:16.822
12.0, -4139.173544909339, -3694.491960377898, -5011.546348473523, -5867.016674187966, 0.0, 0.03200000151991844, 0.9920000471174717, 0.0, 0.0, 0.0, 0.0, 0.0, 1.667052616822806E9, 0.0, 2022-10-29 16:10:16.822
13.0, -4337.05352151487, -3733.0447190711275, -4858.894851982128, -6033.047662770841, 0.0, 0.03200000151991844, 0.9920000471174717, 0.0, 0.0, 0.0, 0.0, 0.0, 1.667052616836387E9, 0.0, 2022-10-29 16:10:16.836
13.0, -4283.98434114363, -3615.365027065389, -4895.828233994544, -6068.91143339593, 0.0, 0.03200000151991844, 0.9920000471174717, 0.0, 0.0, 0.0, 0.0, 0.0, 1.667052616836387E9, 0.0, 2022-10-29 16:10:16.836
14.0, -4300.548358047381, -3377.3521840353496, -5122.395113210194, -6202.968147307634, 0.0, 0.03200000151991844, 0.9920000471174717, 0.0, 0.0, 0.0, 0.0, 0.0, 1.6670526168520513E9, 0.0, 2022-10-29 16:10:16.852
14.0, -4167.63418357214, -3211.384773751721, -5018.476383091416, -6351.019566853531, 0.0, 0.03200000151991844, 0.9920000471174717, 0.0, 0.0, 0.0, 0.0, 0.0, 1.6670526168520513E9, 0.0, 2022-10-29 16:10:16.852
15.0, -4341.627419160679, -3242.749444730114, -4847.7910890136845, -6525.6111864349805, 0.0, 0.03200000151991844, 0.9920000471174717, 0.0, 0.0, 0.0, 0.0, 0.0, 1.6670526168528297E9, 0.0, 2022-10-29 16:10:16.852
15.0, -4293.105957135558, -3124.194616134744, -4892.817614530213, -6565.622506110929, 0.0, 0.03200000151991844, 0.9920000471174717, 0.0, 0.0, 0.0, 0.0, 0.0, 1.6670526168528297E9, 0.0, 2022-10-29 16:10:16.852
16.0, -4274.348488907795, -3357.2988404729404, -5101.586309856735, -6710.382813695818, 0.0, 0.03200000151991844, 0.9920000471174717, 0.0, 0.0, 0.0, 0.0, 0.0, 1.6670526168663983E9, 0.0, 2022-10-29 16:10:16.866
16.0, -4283.769296896178, -3321.9698755415156, -5139.310680709779, -6639.019912691321, 0.0, 0.03200000151991844, 0.9920000471174717, 0.0, 0.0, 0.0, 0.0, 0.0, 1.6670526168663983E9, 0.0, 2022-10-29 16:10:16.866
17.0, -4047.347781297285, -3447.467828404624, -5047.978583891876, -6688.556757554412, 0.0, 0.03200000151991844, 0.9920000471174717, 0.0, 0.0, 0.0, 0.0, 0.0, 1.6670526168820746E9, 0.0, 2022-10-29 16:10:16.882
17.0, -4228.188773704693, -3632.8677588580176, -4839.43054266274, -6613.298750746064, 0.0, 0.03200000151991844, 0.9920000471174717, 0.0, 0.0, 0.0, 0.0, 0.0, 1.6670526168820746E9, 0.0, 2022-10-29 16:10:16.882
18.0, -4133.4552378770895, -3690.3238418772817, -4983.072620160878, -6829.019920090213, 0.0, 0.03200000151991844, 0.9920000471174717, 0.0, 0.0, 0.0, 0.0, 0.0, 1.6670526168828266E9, 0.0, 2022-10-29 16:10:16.882
18.0, -4083.5518828183413, -3627.820763867814, -4967.07893800037, -6608.2741951555945, 0.0, 0.03200000151991844, 0.9920000471174717, 0.0, 0.0, 0.0, 0.0, 0.0, 1.6670526168828266E9, 0.0, 2022-10-29 16:10:16.882
19.0, -4155.217715719249, -3599.0422337087803, -5173.489626404829, -6680.224260453135, 0.0, 0.03200000151991844, 0.9920000471174717, 0.0, 0.0, 0.0, 0.0, 0.0, 1.667052616896484E9, 0.0, 2022-10-29 16:10:16.896
19.0, -4066.9411171651445, -3492.178332374897, -5181.464963060338, -6862.060066248756, 0.0, 0.03200000151991844, 0.9920000471174717, 0.0, 0.0, 0.0, 0.0, 0.0, 1.667052616896484E9, 0.0, 2022-10-29 16:10:16.896
20.0, -4094.455561139155, -3667.560940796975, -4947.969919176772, -6840.258319457062, 0.0, 0.03200000151991844, 0.9920000471174717, 0.0, 0.0, 0.0, 0.0, 0.0, 1.6670526169285002E9, 0.0, 2022-10-29 16:10:16.928
20.0, -4093.7992086969316, -3645.5572394076735, -4974.698984160088, -6609.867392536718, 0.0, 0.03200000151991844, 0.9920000471174717, 0.0, 0.0, 0.0, 0.0, 0.0, 1.6670526169285002E9, 0.0, 2022-10-29 16:10:16.928
21.0, -4209.43130547693, -3679.1321912598796, -4742.312820613384, -6730.855026053265, 0.0, 0.01600000075995922, 0.9920000471174717, 0.0, 0.0, 0.0, 0.0, 0.0, 1.6670526169292E9, 0.0, 2022-10-29 16:10:16.929
21.0, -4116.019824283663, -3571.4567316356115, -4732.2637094324455, -6939.135664435569, 0.0, 0.01600000075995922, 0.9920000471174717, 0.0, 0.0, 0.0, 0.0, 0.0, 1.6670526169292E9, 0.0, 2022-10-29 16:10:16.929
22.0, -4085.545249494724, -3688.8334917449392, -4932.785925356671, -6878.457657604478, 0.0, 0.01600000075995922, 0.9920000471174717, 0.0, 0.0, 0.0, 0.0, 0.0, 1.6670526169300485E9, 0.0, 2022-10-29 16:10:16.930
22.0, -4098.029035546817, -3670.1470816163346, -4971.190958001651, -6659.091955753509, 0.0, 0.01600000075995922, 0.9920000471174717, 0.0, 0.0, 0.0, 0.0, 0.0, 1.6670526169300485E9, 0.0, 2022-10-29 16:10:16.930
23.0, -4213.100147333462, -3688.594138147775, -4734.365533207543, -6770.32219028566, 0.0, 0.01600000075995922, 0.9920000471174717, 0.0, 0.0, 0.0, 0.0, 0.0, 1.6670526169306917E9, 0.0, 2022-10-29 16:10:16.930
23.0, -4098.008466097061, -3542.8277974748053, -4712.288903769106, -6978.868361564819, 0.0, 0.01600000075995922, 0.9920000471174717, 0.0, 0.0, 0.0, 0.0, 0.0, 1.6670526169306917E9, 0.0, 2022-10-29 16:10:16.930
24.0, -4101.258439158555, -3685.000094290357, -4955.049549792893, -6952.589954526164, 0.0, 0.01600000075995922, 0.9920000471174717, 0.0, 0.0, 0.0, 0.0, 0.0, 1.667052616941482E9, 0.0, 2022-10-29 16:10:16.941
24.0, -4137.875799624715, -3692.9212023965083, -5003.840284614824, -6738.86776170833, 0.0, 0.01600000075995922, 0.9920000471174717, 0.0, 0.0, 0.0, 0.0, 0.0, 1.667052616941482E9, 0.0, 2022-10-29 16:10:16.941
25.0, -4200.973521727137, -3663.1515987492166, -5213.8113577771, -6796.078881280497, 0.0, 0.01600000075995922, 0.9920000471174717, 0.0, 0.0, 0.0, 0.0, 0.0, 1.667052616956438E9, 0.0, 2022-10-29 16:10:16.956
25.0, -4001.808889486827, -3442.329205865506, -5111.457775789779, -6895.008584858384, 0.0, 0.01600000075995922, 0.9920000471174717, 0.0, 0.0, 0.0, 0.0, 0.0, 1.667052616956438E9, 0.0, 2022-10-29 16:10:16.956
26.0, -4191.818246635608, -3291.5158702023327, -5033.748264560476, -6960.87944277795, 0.0, 0.01600000075995922, 0.9920000471174717, 0.0, 0.0, 0.0, 0.0, 0.0, 1.6670526169720786E9, 0.0, 2022-10-29 16:10:16.972
26.0, -4239.210258874111, -3300.061541601084, -5098.908541488461, -6781.283837055787, 0.0, 0.01600000075995922, 0.9920000471174717, 0.0, 0.0, 0.0, 0.0, 0.0, 1.6670526169720786E9, 0.0, 2022-10-29 16:10:16.972
27.0, -4154.198592981324, -3135.6592794489115, -5170.985763384495, -6763.9157416615635, 0.0, 0.01600000075995922, 0.9920000471174717, 0.0, 0.0, 0.0, 0.0, 0.0, 1.6670526169727995E9, 0.0, 2022-10-29 16:10:16.972
27.0, -4358.967465305235, -3321.4032806982286, -4969.139622875955, -6796.148069429677, 0.0, 0.01600000075995922, 0.9920000471174717, 0.0, 0.0, 0.0, 0.0, 0.0, 1.6670526169727995E9, 0.0, 2022-10-29 16:10:16.972
28.0, -4260.37435272336, -3384.839463746641, -5106.083539553452, -6979.833255753387, 0.0, 0.01600000075995922, 0.9920000471174717, 0.0, 0.0, 0.0, 0.0, 0.0, 1.6670526170018244E9, 0.0, 2022-10-29 16:10:17.001
28.0, -4298.869142967276, -3393.5048119439743, -5168.034982319456, -6830.579458371736, 0.0, 0.01600000075995922, 0.9920000471174717, 0.0, 0.0, 0.0, 0.0, 0.0, 1.6670526170018244E9, 0.0, 2022-10-29 16:10:17.001
29.0, -4129.1375233782455, -3626.6595249315724, -5146.1341281789355, -6745.100304984488, 0.0, 0.01600000075995922, 0.9920000471174717, 0.0, 0.0, 0.0, 0.0, 0.0, 1.667052617017514E9, 0.0, 2022-10-29 16:10:17.017
29.0, -4300.116399602499, -3778.8042649789713, -4911.657360557001, -6726.168931408785, 0.0, 0.01600000075995922, 0.9920000471174717, 0.0, 0.0, 0.0, 0.0, 0.0, 1.667052617017514E9, 0.0, 2022-10-29 16:10:17.017
30.0, -4296.344710497186, -3933.583764545154, -5141.926740728784, -6489.364076064434, 0.0, 0.01600000075995922, 1.0240000486373901, 0.0, 0.0, 0.0, 0.0, 0.0, 1.6670526170182505E9, 0.0, 2022-10-29 16:10:17.018
30.0, -4343.504848938435, -3928.9593782499433, -5208.100530544762, -6367.860336354002, 0.0, 0.01600000075995922, 1.0240000486373901, 0.0, 0.0, 0.0, 0.0, 0.0, 1.6670526170182505E9, 0.0, 2022-10-29 16:10:17.018
31.0, -4129.073945078999, -4086.5868116323836, -5132.995859634597, -6261.022614319809, 0.0, 0.01600000075995922, 1.0240000486373901, 0.0, 0.0, 0.0, 0.0, 0.0, 1.6670526170327492E9, 0.0, 2022-10-29 16:10:17.032
31.0, -4230.023194632959, -4162.976138177328, -5327.1995145836845, -6195.323791798204, 0.0, 0.01600000075995922, 1.0240000486373901, 0.0, 0.0, 0.0, 0.0, 0.0, 1.6670526170327492E9, 0.0, 2022-10-29 16:10:17.032
32.0, -4364.495037439745, -3985.3140607322566, -5200.183162338566, -6043.949471141677, 0.0, 0.01600000075995922, 1.0240000486373901, 0.0, 0.0, 0.0, 0.0, 0.0, 1.6670526170334885E9, 0.0, 2022-10-29 16:10:17.033
32.0, -4472.959615954664, -4055.998169894796, -5331.894958978053, -6002.296335385181, 0.0, 0.01600000075995922, 1.0240000486373901, 0.0, 0.0, 0.0, 0.0, 0.0, 1.6670526170334885E9, 0.0, 2022-10-29 16:10:17.033
33.0, -4665.820646819659, -4123.834345241077, -5168.543608713429, -5835.556635760702, 0.0, 0.01600000075995922, 1.0240000486373901, 0.0, 0.0, 0.0, 0.0, 0.0, 1.6670526170342524E9, 0.0, 2022-10-29 16:10:17.034
33.0, -4759.166679763701, -4207.078908404801, -5373.817367531359, -5740.062030292116, 0.0, 0.01600000075995922, 1.0240000486373901, 0.0, 0.0, 0.0, 0.0, 0.0, 1.6670526170342524E9, 0.0, 2022-10-29 16:10:17.034
34.0, -4837.023917041253, -4450.441678321455, -5197.337098472286, -5594.308779268991, 0.0, 0.01600000075995922, 1.0240000486373901, 0.0, 0.0, 0.0, 0.0, 0.0, 1.6670526170464175E9, 0.0, 2022-10-29 16:10:17.046
34.0, -4735.352866795845, -4323.058815880679, -5118.4794379565865, -5362.754743462428, 0.0, 0.01600000075995922, 1.0240000486373901, 0.0, 0.0, 0.0, 0.0, 0.0, 1.6670526170464175E9, 0.0, 2022-10-29 16:10:17.046
35.0, -4610.847857370973, -4096.970643859357, -5127.165355603676, -5268.707479276694, 0.0, 0.01600000075995922, 1.0240000486373901, 0.0, 0.0, 0.0, 0.0, 0.0, 1.6670526170620136E9, 0.0, 2022-10-29 16:10:17.062
35.0, -4463.118069221266, -3947.5766002293676, -5079.8892802638, -5381.1943201939575, 0.0, 0.01600000075995922, 1.0240000486373901, 0.0, 0.0, 0.0, 0.0, 0.0, 1.6670526170620136E9, 0.0, 2022-10-29 16:10:17.062
36.0, -4312.192536559422, -3939.1262962794863, -5166.168772241566, -5597.689648828935, 0.0, 0.01600000075995922, 1.0240000486373901, 0.0, 0.0, 0.0, 0.0, 0.0, 1.6670526170627997E9, 0.0, 2022-10-29 16:10:17.062
36.0, -4260.198577425443, -3858.675438382663, -5132.152512194589, -5381.876851935871, 0.0, 0.01600000075995922, 1.0240000486373901, 0.0, 0.0, 0.0, 0.0, 0.0, 1.6670526170627997E9, 0.0, 2022-10-29 16:10:17.062
37.0, -4081.0012710485607, -4079.3127062185667, -5103.4637396344915, -5286.161592369899, 0.0, 0.01600000075995922, 1.0240000486373901, 0.0, 0.0, 0.0, 0.0, 0.0, 1.6670526170764618E9, 0.0, 2022-10-29 16:10:17.076
37.0, -4325.38316370314, -4303.663694710471, -4963.565301991999, -5302.420807427261, 0.0, 0.01600000075995922, 1.0240000486373901, 0.0, 0.0, 0.0, 0.0, 0.0, 1.6670526170764618E9, 0.0, 2022-10-29 16:10:17.076
38.0, -4455.872013057116, -4117.8374156621285, -4848.737283702474, -5190.633327801712, 0.0, 0.01600000075995922, 1.0240000486373901, 0.0, 0.0, 0.0, 0.0, 0.0, 1.6670526170920208E9, 0.0, 2022-10-29 16:10:17.092
38.0, -4568.117630427238, -4197.512244318146, -4980.048911046702, -5136.492666093167, 0.0, 0.01600000075995922, 1.0240000486373901, 0.0, 0.0, 0.0, 0.0, 0.0, 1.6670526170920208E9, 0.0, 2022-10-29 16:10:17.092
39.0, -4514.386487763841, -4052.680878634099, -5074.015767383389, -4898.593890011776, 0.0, 0.01600000075995922, 1.0240000486373901, 0.0, 0.0, 0.0, 0.0, 0.0, 1.6670526170928113E9, 0.0, 2022-10-29 16:10:17.092
39.0, -4430.62768835621, -3884.254484129604, -5099.508795431349, -4980.488349291496, 0.0, 0.01600000075995922, 1.0240000486373901, 0.0, 0.0, 0.0, 0.0, 0.0, 1.6670526170928113E9, 0.0, 2022-10-29 16:10:17.092
40.0, -4632.118538368959, -3868.698370263912, -5058.973889761604, -4737.052651325706, 0.0, 0.01600000075995922, 1.008000047877431, 0.0, 0.0, 0.0, 0.0, 0.0, 1.6670526171063588E9, 0.0, 2022-10-29 16:10:17.106
40.0, -4632.66456376249, -3828.859085985925, -5084.988633853383, -4517.1147447815165, 0.0, 0.01600000075995922, 1.008000047877431, 0.0, 0.0, 0.0, 0.0, 0.0, 1.6670526171063588E9, 0.0, 2022-10-29 16:10:17.106
41.0, -4769.438314992003, -3832.3128835950047, -4859.3529897267, -4625.760708444286, 0.0, 0.01600000075995922, 1.008000047877431, 0.0, 0.0, 0.0, 0.0, 0.0, 1.6670526171220431E9, 0.0, 2022-10-29 16:10:17.122
41.0, -4944.733035765123, -3951.5352843324654, -4666.703263209201, -4531.103840565775, 0.0, 0.01600000075995922, 1.008000047877431, 0.0, 0.0, 0.0, 0.0, 0.0, 1.6670526171220431E9, 0.0, 2022-10-29 16:10:17.122
42.0, -5131.728033549618, -3932.1420331122354, -4602.808942416217, -4736.869396227878, 0.0, 0.01600000075995922, 1.008000047877431, 0.0, 0.0, 0.0, 0.0, 0.0, 1.6670526171227717E9, 0.0, 2022-10-29 16:10:17.122
42.0, -5167.444078126457, -3929.514753393363, -4651.25934634218, -4527.085318063386, 0.0, 0.01600000075995922, 1.008000047877431, 0.0, 0.0, 0.0, 0.0, 0.0, 1.6670526171227717E9, 0.0, 2022-10-29 16:10:17.122
43.0, -5258.3591760993, -3876.692406419199, -4871.825556078926, -4631.187303279992, 0.0, 0.01600000075995922, 1.008000047877431, 0.0, 0.0, 0.0, 0.0, 0.0, 1.6670526171531348E9, 0.0, 2022-10-29 16:10:17.153
43.0, -5393.07972225314, -3956.39902422484, -5116.413143231068, -4498.712567049544, 0.0, 0.01600000075995922, 1.008000047877431, 0.0, 0.0, 0.0, 0.0, 0.0, 1.6670526171531348E9, 0.0, 2022-10-29 16:10:17.153
44.0, -5594.342438368592, -3942.5258653392084, -5087.232573826797, -4714.5347136924975, 0.0, 0.01600000075995922, 1.008000047877431, 0.0, 0.0, 0.0, 0.0, 0.0, 1.6670526171538649E9, 0.0, 2022-10-29 16:10:17.153
44.0, -5625.402307500597, -3976.8506671325304, -5130.970703808591, -4484.644933366217, 0.0, 0.01600000075995922, 1.008000047877431, 0.0, 0.0, 0.0, 0.0, 0.0, 1.6670526171538649E9, 0.0, 2022-10-29 16:10:17.153
45.0, -5698.481822584756, -3893.417239021044, -5345.706409514416, -4593.178700030316, 0.0, 0.01600000075995922, 1.008000047877431, 0.0, 0.0, 0.0, 0.0, 0.0, 1.6670526171671362E9, 0.0, 2022-10-29 16:10:17.167
45.0, -5793.189179112669, -3947.3634259318933, -5574.945447248407, -4463.647265064996, 0.0, 0.01600000075995922, 1.008000047877431, 0.0, 0.0, 0.0, 0.0, 0.0, 1.6670526171671362E9, 0.0, 2022-10-29 16:10:17.167
46.0, -5589.463738876395, -3964.2004555324093, -5566.771895895246, -4673.840862274636, 0.0, 0.01600000075995922, 1.008000047877431, 0.0, 0.0, 0.0, 0.0, 0.0, 1.6670526171678019E9, 0.0, 2022-10-29 16:10:17.167
46.0, -5715.6704027811065, -3998.9104670211673, -5640.9677711161785, -4489.4955836087465, 0.0, 0.01600000075995922, 1.008000047877431, 0.0, 0.0, 0.0, 0.0, 0.0, 1.6670526171678019E9, 0.0, 2022-10-29 16:10:17.167
47.0, -5675.477697957307, -3792.7297824639827, -5701.713096146472, -4594.397907415871, 0.0, 0.01600000075995922, 1.008000047877431, 0.0, 0.0, 0.0, 0.0, 0.0, 1.6670526171820967E9, 0.0, 2022-10-29 16:10:17.182
47.0, -5736.967263078783, -3843.575592311565, -5925.308624847326, -4436.783563683275, 0.0, 0.01600000075995922, 1.008000047877431, 0.0, 0.0, 0.0, 0.0, 0.0, 1.6670526171820967E9, 0.0, 2022-10-29 16:10:17.182
48.0, -5583.771611143835, -4018.176561642904, -6074.766246776562, -4217.00647283718, 0.0, 0.01600000075995922, 1.008000047877431, 0.0, 0.0, 0.0, 0.0, 0.0, 1.6670526171828876E9, 0.0, 2022-10-29 16:10:17.182
48.0, -5721.878636707552, -4144.633798844647, -6249.999259200413, -4077.6484507382847, 0.0, 0.01600000075995922, 1.008000047877431, 0.0, 0.0, 0.0, 0.0, 0.0, 1.6670526171828876E9, 0.0, 2022-10-29 16:10:17.182
49.0, -5787.919660075102, -4238.675453180447, -6024.243938275147, -4067.539501158055, 0.0, 0.01600000075995922, 1.008000047877431, 0.0, 0.0, 0.0, 0.0, 0.0, 1.6670526171963997E9, 0.0, 2022-10-29 16:10:17.196
49.0, -5839.5209297137335, -4187.300447489135, -6101.530840809457, -3871.8006172771566, 0.0, 0.01600000075995922, 1.008000047877431, 0.0, 0.0, 0.0, 0.0, 0.0, 1.6670526171963997E9, 0.0, 2022-10-29 16:10:17.196
50.0, -5697.97506614076, -4297.395622384734, -6166.679898037575, -3681.071329386905, 0.0, 0.01600000075995922, 0.9920000471174717, 0.0, 0.0, 0.0, 0.0, 0.0, 1.6670526172121673E9, 0.0, 2022-10-29 16:10:17.212
50.0, -5810.474996707868, -4306.341463078745, -6288.679174492136, -3580.9598174230196, 0.0, 0.01600000075995922, 0.9920000471174717, 0.0, 0.0, 0.0, 0.0, 0.0, 1.6670526172121673E9, 0.0, 2022-10-29 16:10:17.212
51.0, -5583.32469309913, -4414.643355945591, -6241.754649748094, -3501.9993096585386, 0.0, 0.03200000151991844, 0.9920000471174717, 0.0, 0.0, 0.0, 0.0, 0.0, 1.6670526172128935E9, 0.0, 2022-10-29 16:10:17.212
51.0, -5603.088194414973, -4386.377192080487, -6408.754272419494, -3301.5556316333823, 0.0, 0.03200000151991844, 0.9920000471174717, 0.0, 0.0, 0.0, 0.0, 0.0, 1.6670526172128935E9, 0.0, 2022-10-29 16:10:17.212
52.0, -5588.14916404197, -4625.468996247742, -6630.732294389512, -3171.7717534210533, 0.0, 0.03200000151991844, 0.9920000471174717, 0.0, 0.0, 0.0, 0.0, 0.0, 1.667052617242712E9, 0.0, 2022-10-29 16:10:17.242
52.0, -5781.591749350075, -4792.036660474259, -6830.001643828582, -3122.3471055566333, 0.0, 0.03200000151991844, 0.9920000471174717, 0.0, 0.0, 0.0, 0.0, 0.0, 1.667052617242712E9, 0.0, 2022-10-29 16:10:17.242
53.0, -5581.866132116411, -4917.41119663883, -6743.0265304590575, -3057.4486216255464, 0.0, 0.03200000151991844, 0.9920000471174717, 0.0, 0.0, 0.0, 0.0, 0.0, 1.667052617243449E9, 0.0, 2022-10-29 16:10:17.243
53.0, -5582.451426459476, -4857.6812544465065, -6868.27764992509, -2870.707937038038, 0.0, 0.03200000151991844, 0.9920000471174717, 0.0, 0.0, 0.0, 0.0, 0.0, 1.667052617243449E9, 0.0, 2022-10-29 16:10:17.243
54.0, -5602.089641126804, -4646.00104700448, -6648.066730684135, -2874.6236122916453, 0.0, 0.03200000151991844, 0.9920000471174717, 0.0, 0.0, 0.0, 0.0, 0.0, 1.667052617244248E9, 0.0, 2022-10-29 16:10:17.244
54.0, -5768.567547754385, -4778.333667036612, -6855.040274031926, -2834.2158632203937, 0.0, 0.03200000151991844, 0.9920000471174717, 0.0, 0.0, 0.0, 0.0, 0.0, 1.667052617244248E9, 0.0, 2022-10-29 16:10:17.244
55.0, -5998.404969481286, -4835.144617313519, -6740.647954087239, -2687.9820350529626, 0.0, 0.03200000151991844, 0.9920000471174717, 0.0, 0.0, 0.0, 0.0, 0.0, 1.6670526172564776E9, 0.0, 2022-10-29 16:10:17.256
55.0, -5968.893418930937, -4744.07805339247, -6840.744506451301, -2456.7477606926113, 0.0, 0.03200000151991844, 0.9920000471174717, 0.0, 0.0, 0.0, 0.0, 0.0, 1.6670526172564776E9, 0.0, 2022-10-29 16:10:17.256
56.0, -6082.339544186834, -4621.725356392097, -6691.879658665042, -2562.9272603346035, 0.0, 0.03200000151991844, 0.9920000471174717, 0.0, 0.0, 0.0, 0.0, 0.0, 1.6670526172720847E9, 0.0, 2022-10-29 16:10:17.272
56.0, -6246.364076443482, -4764.664332698565, -6896.4372266414575, -2570.06298945006, 0.0, 0.03200000151991844, 0.9920000471174717, 0.0, 0.0, 0.0, 0.0, 0.0, 1.6670526172720847E9, 0.0, 2022-10-29 16:10:17.272
57.0, -6401.721390552819, -4810.618353404105, -6722.722613599617, -2799.0738932867534, 0.0, 0.03200000151991844, 0.9920000471174717, 0.0, 0.0, 0.0, 0.0, 0.0, 1.667052617272846E9, 0.0, 2022-10-29 16:10:17.272
57.0, -6304.64106750302, -4833.13068118738, -6780.124468069524, -3009.116024548188, 0.0, 0.03200000151991844, 0.9920000471174717, 0.0, 0.0, 0.0, 0.0, 0.0, 1.667052617272846E9, 0.0, 2022-10-29 16:10:17.272
58.0, -6473.860320798121, -4647.502616836689, -6626.521167039406, -3015.4888140726835, 0.0, 0.03200000151991844, 0.9920000471174717, 0.0, 0.0, 0.0, 0.0, 0.0, 1.6670526172864263E9, 0.0, 2022-10-29 16:10:17.286
58.0, -6484.403098773211, -4799.383693937212, -6864.128230924252, -2915.7475522044115, 0.0, 0.03200000151991844, 0.9920000471174717, 0.0, 0.0, 0.0, 0.0, 0.0, 1.6670526172864263E9, 0.0, 2022-10-29 16:10:17.286
59.0, -6582.581082460005, -4808.922308774199, -6670.580928417388, -3119.611368739046, 0.0, 0.03200000151991844, 0.9920000471174717, 0.0, 0.0, 0.0, 0.0, 0.0, 1.66705261730208E9, 0.0, 2022-10-29 16:10:17.302
59.0, -6487.984052980784, -4685.101701041218, -6719.616626686417, -3256.744150364306, 0.0, 0.03200000151991844, 0.9920000471174717, 0.0, 0.0, 0.0, 0.0, 0.0, 1.66705261730208E9, 0.0, 2022-10-29 16:10:17.302
60.0, -6659.522044248413, -4642.16577959992, -6642.703714147676, -3460.9950465443544, 0.0, 0.03200000151991844, 0.9920000471174717, 0.0, 0.0, 0.0, 0.0, 0.0, 1.66705261730277E9, 0.0, 2022-10-29 16:10:17.302
60.0, -6843.659758466762, -4805.771443061531, -6864.5732790189795, -3464.772345499601, 0.0, 0.03200000151991844, 0.9920000471174717, 0.0, 0.0, 0.0, 0.0, 0.0, 1.66705261730277E9, 0.0, 2022-10-29 16:10:17.302
61.0, -7000.827184154652, -4834.974451865535, -6677.821374731604, -3632.3778319638222, 0.0, 0.03200000151991844, 0.9920000471174717, 0.0, 0.0, 0.0, 0.0, 0.0, 1.6670526173327384E9, 0.0, 2022-10-29 16:10:17.332
61.0, -6928.007592117414, -4703.778761419933, -6734.639804808423, -3799.878601229284, 0.0, 0.03200000151991844, 0.9920000471174717, 0.0, 0.0, 0.0, 0.0, 0.0, 1.6670526173327384E9, 0.0, 2022-10-29 16:10:17.332
62.0, -7079.720373719931, -4631.394867727533, -6642.303544852417, -3992.7228025444783, 0.0, 0.03200000151991844, 0.9920000471174717, 0.0, 0.0, 0.0, 0.0, 0.0, 1.6670526173334897E9, 0.0, 2022-10-29 16:10:17.333
62.0, -6840.383606105577, -4805.517129864544, -6853.716349447612, -3975.068604803644, 0.0, 0.03200000151991844, 0.9920000471174717, 0.0, 0.0, 0.0, 0.0, 0.0, 1.6670526173334897E9, 0.0, 2022-10-29 16:10:17.333
63.0, -6617.893217841629, -4823.650034799706, -6691.973156163935, -3747.2301596030593, 0.0, 0.03200000151991844, 0.9920000471174717, 0.0, 0.0, 0.0, 0.0, 0.0, 1.6670526173342373E9, 0.0, 2022-10-29 16:10:17.334
63.0, -6585.02323713107, -4725.421562463511, -6781.444652753882, -3930.266473284457, 0.0, 0.03200000151991844, 0.9920000471174717, 0.0, 0.0, 0.0, 0.0, 0.0, 1.6670526173342373E9, 0.0, 2022-10-29 16:10:17.334
64.0, -6711.858204228338, -4563.440885532647, -6601.647092434112, -4049.823595067952, 0.0, 0.03200000151991844, 0.9920000471174717, 0.0, 0.0, 0.0, 0.0, 0.0, 1.6670526173463633E9, 0.0, 2022-10-29 16:10:17.346
64.0, -6889.836303219665, -4709.988865296356, -6798.014279507566, -3945.355099655688, 0.0, 0.03200000151991844, 0.9920000471174717, 0.0, 0.0, 0.0, 0.0, 0.0, 1.6670526173463633E9, 0.0, 2022-10-29 16:10:17.346
65.0, -7102.664659948088, -4825.602262576576, -6710.339804846328, -4159.52982036816, 0.0, 0.03200000151991844, 0.9920000471174717, 0.0, 0.0, 0.0, 0.0, 0.0, 1.6670526173620863E9, 0.0, 2022-10-29 16:10:17.362
65.0, -7070.6286769276485, -4767.413159165997, -6840.377996255644, -4370.125456823036, 0.0, 0.03200000151991844, 0.9920000471174717, 0.0, 0.0, 0.0, 0.0, 0.0, 1.6670526173620863E9, 0.0, 2022-10-29 16:10:17.362
66.0, -7024.270747026894, -4977.980746371206, -7049.41222447902, -4411.417692233808, 0.0, 0.03200000151991844, 0.9920000471174717, 0.0, 0.0, 0.0, 0.0, 0.0, 1.667052617362799E9, 0.0, 2022-10-29 16:10:17.362
66.0, -7214.915887168143, -5054.869349560235, -7270.133640063927, -4409.347657608334, 0.0, 0.03200000151991844, 0.9920000471174717, 0.0, 0.0, 0.0, 0.0, 0.0, 1.667052617362799E9, 0.0, 2022-10-29 16:10:17.362
67.0, -7058.0495234266855, -4844.967464547139, -7263.4766181427985, -4340.324064026121, 0.0, 0.03200000151991844, 0.9920000471174717, 0.0, 0.0, 0.0, 0.0, 0.0, 1.667052617376397E9, 0.0, 2022-10-29 16:10:17.376
67.0, -7078.5759643334895, -4865.056337159127, -7423.6658829948865, -4157.760847689118, 0.0, 0.03200000151991844, 0.9920000471174717, 0.0, 0.0, 0.0, 0.0, 0.0, 1.667052617376397E9, 0.0, 2022-10-29 16:10:17.376
68.0, -6914.216711030807, -4933.900415543467, -7484.495355774183, -4035.1014788923785, 0.0, 0.03200000151991844, 0.9920000471174717, 0.0, 0.0, 0.0, 0.0, 0.0, 1.6670526174084263E9, 0.0, 2022-10-29 16:10:17.408
68.0, -7109.918195912149, -5166.002346693538, -7701.675086101051, -3936.3587703122757, 0.0, 0.03200000151991844, 0.9920000471174717, 0.0, 0.0, 0.0, 0.0, 0.0, 1.6670526174084263E9, 0.0, 2022-10-29 16:10:17.408
69.0, -7034.013186411466, -4977.1411388311535, -7795.118356443942, -3791.3965081297792, 0.0, 0.03200000151991844, 0.9920000471174717, 0.0, 0.0, 0.0, 0.0, 0.0, 1.6670526174092083E9, 0.0, 2022-10-29 16:10:17.409
69.0, -7102.137334054336, -4961.411119617522, -7986.517086426262, -3612.191721952986, 0.0, 0.03200000151991844, 0.9920000471174717, 0.0, 0.0, 0.0, 0.0, 0.0, 1.6670526174092083E9, 0.0, 2022-10-29 16:10:17.409
70.0, -7299.761127512902, -4880.032766531687, -7917.895532089286, -3464.736816450022, 0.0, 0.03200000151991844, 0.9920000471174717, 0.0, 0.0, 0.0, 0.0, 0.0, 1.6670526174098845E9, 0.0, 2022-10-29 16:10:17.409
70.0, -7513.354293782264, -5042.348164508585, -8150.984796827659, -3376.0506988507695, 0.0, 0.03200000151991844, 0.9920000471174717, 0.0, 0.0, 0.0, 0.0, 0.0, 1.6670526174098845E9, 0.0, 2022-10-29 16:10:17.409
71.0, -7504.939518881962, -4896.720200133976, -8300.10021791095, -3314.7948774765246, 0.0, 0.04800000227987766, 0.9920000471174717, 0.0, 0.0, 0.0, 0.0, 0.0, 1.667052617410674E9, 0.0, 2022-10-29 16:10:17.410
71.0, -7586.848937761504, -4942.663001139648, -8507.726373801008, -3199.347905744333, 0.0, 0.04800000227987766, 0.9920000471174717, 0.0, 0.0, 0.0, 0.0, 0.0, 1.667052617410674E9, 0.0, 2022-10-29 16:10:17.410
72.0, -7718.2091838051565, -4832.420100195799, -8379.554392469581, -3046.4140468062833, 0.01600000075995922, 0.04800000227987766, 0.9920000471174717, 0.0, 0.0, 0.0, 0.0, 0.0, 1.6670526174213812E9, 0.0, 2022-10-29 16:10:17.421
72.0, -7946.702111497987, -5041.3271718206815, -8134.45443902351, -2921.5593567355536, 0.01600000075995922, 0.04800000227987766, 0.9920000471174717, 0.0, 0.0, 0.0, 0.0, 0.0, 1.6670526174213812E9, 0.0, 2022-10-29 16:10:17.421
73.0, -8007.290360730141, -4952.0071411789395, -8347.978417143691, -2880.4466365226544, 0.01600000075995922, 0.04800000227987766, 0.9920000471174717, 0.0, 0.0, 0.0, 0.0, 0.0, 1.6670526174364276E9, 0.0, 2022-10-29 16:10:17.436
73.0, -8122.806520611513, -5019.723639726639, -8580.48986733891, -2800.5922926687635, 0.01600000075995922, 0.04800000227987766, 0.9920000471174717, 0.0, 0.0, 0.0, 0.0, 0.0, 1.6670526174364276E9, 0.0, 2022-10-29 16:10:17.436
74.0, -8164.977632511873, -4806.760646599811, -8371.46872876538, -3034.3397797993384, 0.01600000075995922, 0.04800000227987766, 0.9920000471174717, 0.0, 0.0, 0.0, 0.0, 0.0, 1.6670526174520717E9, 0.0, 2022-10-29 16:10:17.452
74.0, -8373.114284745883, -5005.0127432509325, -8598.87708547106, -2978.6881985086948, 0.01600000075995922, 0.04800000227987766, 0.9920000471174717, 0.0, 0.0, 0.0, 0.0, 0.0, 1.6670526174520717E9, 0.0, 2022-10-29 16:10:17.452
75.0, -8463.187905228697, -4950.421423597727, -8839.982825764455, -3004.26350435568, 0.01600000075995922, 0.04800000227987766, 0.9920000471174717, 0.0, 0.0, 0.0, 0.0, 0.0, 1.66705261745285E9, 0.0, 2022-10-29 16:10:17.452
75.0, -8602.26917473087, -5010.123316540383, -9083.785033925902, -2962.9189103455283, 0.01600000075995922, 0.04800000227987766, 0.9920000471174717, 0.0, 0.0, 0.0, 0.0, 0.0, 1.66705261745285E9, 0.0, 2022-10-29 16:10:17.452
76.0, -8552.433137871325, -5207.163685605861, -9272.406888191123, -3059.404589302372, 0.01600000075995922, 0.04800000227987766, 0.9920000471174717, 0.0, 0.0, 0.0, 0.0, 0.0, 1.6670526174828067E9, 0.0, 2022-10-29 16:10:17.482
76.0, -8771.000371081755, -5414.148448653519, -9504.40784204239, -2930.4584486801177, 0.01600000075995922, 0.04800000227987766, 0.9920000471174717, 0.0, 0.0, 0.0, 0.0, 0.0, 1.6670526174828067E9, 0.0, 2022-10-29 16:10:17.482
77.0, -8883.96217929339, -5399.151449831203, -9269.916114820633, -2936.676032356452, 0.01600000075995922, 0.04800000227987766, 0.9920000471174717, 0.0, 0.0, 0.0, 0.0, 0.0, 1.6670526174835236E9, 0.0, 2022-10-29 16:10:17.483
77.0, -9039.686003598385, -5500.010941786226, -9072.397038560826, -2879.5864595328458, 0.01600000075995922, 0.04800000227987766, 0.9920000471174717, 0.0, 0.0, 0.0, 0.0, 0.0, 1.6670526174835236E9, 0.0, 2022-10-29 16:10:17.483
78.0, -8987.318054468837, -5689.010525946971, -9255.390343392733, -2986.1698683700524, 0.01600000075995922, 0.04800000227987766, 0.9920000471174717, 0.0, 0.0, 0.0, 0.0, 0.0, 1.6670526174842503E9, 0.0, 2022-10-29 16:10:17.484
78.0, -9203.697446205188, -5887.142945799511, -9481.220462317113, -2854.269206782803, 0.01600000075995922, 0.04800000227987766, 0.9920000471174717, 0.0, 0.0, 0.0, 0.0, 0.0, 1.6670526174842503E9, 0.0, 2022-10-29 16:10:17.484
79.0, -9335.590627992526, -5872.77425016975, -9268.6782079353, -2864.989630005788, 0.01600000075995922, 0.04800000227987766, 0.9920000471174717, 0.0, 0.0, 0.0, 0.0, 0.0, 1.667052617496405E9, 0.0, 2022-10-29 16:10:17.496
79.0, -9464.682624713052, -5937.906477848068, -9029.687381066848, -2701.0959942475893, 0.01600000075995922, 0.04800000227987766, 0.9920000471174717, 0.0, 0.0, 0.0, 0.0, 0.0, 1.667052617496405E9, 0.0, 2022-10-29 16:10:17.496
80.0, -9370.917722973973, -6073.855581137352, -9157.939770247322, -2695.237440967001, 0.01600000075995922, 0.04800000227987766, 0.9280000440776348, 0.0, 0.0, 0.0, 0.0, 0.0, 1.6670526175120587E9, 0.0, 2022-10-29 16:10:17.512
80.0, -9155.804287372623, -5835.236874314491, -8947.755522787571, -2611.3533549108543, 0.01600000075995922, 0.04800000227987766, 0.9280000440776348, 0.0, 0.0, 0.0, 0.0, 0.0, 1.6670526175120587E9, 0.0, 2022-10-29 16:10:17.512
81.0, -9331.323402143084, -5876.007393681444, -8777.23478430789, -2794.797317687422, 0.01600000075995922, 0.03200000151991844, 0.9280000440776348, 0.0, 0.0, 0.0, 0.0, 0.0, 1.6670526175127711E9, 0.0, 2022-10-29 16:10:17.512
81.0, -9500.952174483333, -5985.6593904322945, -8580.545965838246, -2790.3917155396193, 0.01600000075995922, 0.03200000151991844, 0.9280000440776348, 0.0, 0.0, 0.0, 0.0, 0.0, 1.6670526175127711E9, 0.0, 2022-10-29 16:10:17.512
82.0, -9407.205972244032, -6125.3932724767365, -8730.64685055986, -2823.4935700474307, 0.01600000075995922, 0.03200000151991844, 0.9280000440776348, 0.0, 0.0, 0.0, 0.0, 0.0, 1.6670526175263968E9, 0.0, 2022-10-29 16:10:17.526
82.0, -9183.617923343088, -6361.76242947625, -8522.818740072194, -2683.368868457619, 0.01600000075995922, 0.03200000151991844, 0.9280000440776348, 0.0, 0.0, 0.0, 0.0, 0.0, 1.6670526175263968E9, 0.0, 2022-10-29 16:10:17.526
83.0, -9341.323894624598, -6404.915265114978, -8332.22221863037, -2733.33954171557, 0.01600000075995922, 0.03200000151991844, 0.9280000440776348, 0.0, 0.0, 0.0, 0.0, 0.0, 1.6670526175420563E9, 0.0, 2022-10-29 16:10:17.542
83.0, -9505.08476393437, -6507.846661645453, -8114.27954871254, -2750.1522619663738, 0.01600000075995922, 0.03200000151991844, 0.9280000440776348, 0.0, 0.0, 0.0, 0.0, 0.0, 1.6670526175420563E9, 0.0, 2022-10-29 16:10:17.542
84.0, -9374.840878027491, -6606.8866922720335, -8237.180141056422, -2667.113393300213, 0.01600000075995922, 0.03200000151991844, 0.9280000440776348, 0.0, 0.0, 0.0, 0.0, 0.0, 1.667052617542801E9, 0.0, 2022-10-29 16:10:17.542
84.0, -9194.882502009626, -6374.435080476105, -8065.292469142936, -2638.433970490005, 0.01600000075995922, 0.03200000151991844, 0.9280000440776348, 0.0, 0.0, 0.0, 0.0, 0.0, 1.667052617542801E9, 0.0, 2022-10-29 16:10:17.542
85.0, -9365.203155841678, -6426.204645612743, -7873.33462411724, -2785.8926158929244, 0.01600000075995922, 0.03200000151991844, 0.9280000440776348, 0.0, 0.0, 0.0, 0.0, 0.0, 1.6670526175727458E9, 0.0, 2022-10-29 16:10:17.572
85.0, -9489.96060851356, -6487.1257459409535, -7638.913954994641, -2692.125844203867, 0.01600000075995922, 0.03200000151991844, 0.9280000440776348, 0.0, 0.0, 0.0, 0.0, 0.0, 1.6670526175727458E9, 0.0, 2022-10-29 16:10:17.572
86.0, -9372.44734205585, -6610.224552982487, -7763.033754724078, -2536.9368255925365, 0.01600000075995922, 0.03200000151991844, 0.9280000440776348, 0.0, 0.0, 0.0, 0.0, 0.0, 1.6670526175734892E9, 0.0, 2022-10-29 16:10:17.573
86.0, -9196.77115148725, -6424.589008831885, -7593.259126285557, -2460.5175798479468, 0.01600000075995922, 0.03200000151991844, 0.9280000440776348, 0.0, 0.0, 0.0, 0.0, 0.0, 1.6670526175734892E9, 0.0, 2022-10-29 16:10:17.573
87.0, -9312.175114369951, -6388.588731858414, -7352.065498343203, -2501.942581707146, 0.01600000075995922, 0.03200000151991844, 0.9280000440776348, 0.0, 0.0, 0.0, 0.0, 0.0, 1.6670526175742266E9, 0.0, 2022-10-29 16:10:17.574
87.0, -9515.75843840791, -6523.200820913538, -7174.37911154842, -2527.0840591592714, 0.01600000075995922, 0.03200000151991844, 0.9280000440776348, 0.0, 0.0, 0.0, 0.0, 0.0, 1.6670526175742266E9, 0.0, 2022-10-29 16:10:17.574
88.0, -9326.072582605295, -6595.49682695698, -7242.0451214467175, -2346.5347789484076, 0.01600000075995922, 0.03200000151991844, 0.9280000440776348, 0.0, 0.0, 0.0, 0.0, 0.0, 1.6670526175863383E9, 0.0, 2022-10-29 16:10:17.586
88.0, -9124.362948445138, -6366.770155516919, -7043.499442649074, -2274.5248752515763, 0.01600000075995922, 0.03200000151991844, 0.9280000440776348, 0.0, 0.0, 0.0, 0.0, 0.0, 1.6670526175863383E9, 0.0, 2022-10-29 16:10:17.586
89.0, -9275.999062098563, -6360.838674187195, -6826.128977424465, -2387.752216360066, 0.01600000075995922, 0.03200000151991844, 0.9280000440776348, 0.0, 0.0, 0.0, 0.0, 0.0, 1.667052617602065E9, 0.0, 2022-10-29 16:10:17.602
89.0, -9314.981909286696, -6349.7199516189285, -6988.378927152138, -2626.830930877477, 0.01600000075995922, 0.03200000151991844, 0.9280000440776348, 0.0, 0.0, 0.0, 0.0, 0.0, 1.667052617602065E9, 0.0, 2022-10-29 16:10:17.602
90.0, -9310.686634187587, -6121.715080870315, -6761.219273793511, -2815.265790144913, 0.01600000075995922, 0.03200000151991844, 0.9760000463575125, 0.0, 0.0, 0.0, 0.0, 0.0, 1.6670526176027987E9, 0.0, 2022-10-29 16:10:17.602
90.0, -9339.56988154538, -6113.1151809222065, -6796.535149075091, -3057.1961783785373, 0.01600000075995922, 0.03200000151991844, 0.9760000463575125, 0.0, 0.0, 0.0, 0.0, 0.0, 1.6670526176027987E9, 0.0, 2022-10-29 16:10:17.602
91.0, -9534.308342188131, -6165.584107350558, -6628.890393661335, -3255.330468181055, 0.01600000075995922, 0.03200000151991844, 0.9760000463575125, 0.0, 0.0, 0.0, 0.0, 0.0, 1.6670526176163454E9, 0.0, 2022-10-29 16:10:17.616
91.0, -9658.355213868432, -6234.160782888066, -6865.108084712643, -3210.4367091129534, 0.01600000075995922, 0.03200000151991844, 0.9760000463575125, 0.0, 0.0, 0.0, 0.0, 0.0, 1.6670526176163454E9, 0.0, 2022-10-29 16:10:17.616
92.0, -9870.093389759772, -6219.793957208283, -6851.358342525549, -3400.6405410594307, 0.0, 0.03200000151991844, 0.9760000463575125, 0.0, 0.0, 0.0, 0.0, 0.0, 1.6670526176321156E9, 0.0, 2022-10-29 16:10:17.632
92.0, -9630.992235842627, -5984.346685547847, -6626.614664538298, -3275.6960933897644, 0.0, 0.03200000151991844, 0.9760000463575125, 0.0, 0.0, 0.0, 0.0, 0.0, 1.6670526176321156E9, 0.0, 2022-10-29 16:10:17.632
93.0, -9446.338415430393, -6112.148416783661, -6566.495772750583, -3171.221988127567, 0.0, 0.03200000151991844, 0.9760000463575125, 0.0, 0.0, 0.0, 0.0, 0.0, 1.6670526176328883E9, 0.0, 2022-10-29 16:10:17.632
93.0, -9216.057815558743, -6292.271348399576, -6447.929724455345, -3354.3069205083884, 0.0, 0.03200000151991844, 0.9760000463575125, 0.0, 0.0, 0.0, 0.0, 0.0, 1.6670526176328883E9, 0.0, 2022-10-29 16:10:17.632
94.0, -9048.067119399086, -6398.477027341258, -6548.600351462606, -3155.024481419474, 0.0, 0.03200000151991844, 0.9760000463575125, 0.0, 0.0, 0.0, 0.0, 0.0, 1.6670526176464036E9, 0.0, 2022-10-29 16:10:17.646
94.0, -8931.328012232203, -6283.510632753372, -6449.726746384054, -3199.0356240980327, 0.0, 0.03200000151991844, 0.9760000463575125, 0.0, 0.0, 0.0, 0.0, 0.0, 1.6670526176464036E9, 0.0, 2022-10-29 16:10:17.646
95.0, -9105.276369021274, -6293.049247590359, -6249.522421956062, -3354.277001308743, 0.0, 0.03200000151991844, 0.9760000463575125, 0.0, 0.0, 0.0, 0.0, 0.0, 1.667052617662074E9, 0.0, 2022-10-29 16:10:17.662
95.0, -9107.881209340412, -6227.81417266326, -6365.756642628927, -3199.2544082454406, 0.0, 0.03200000151991844, 0.9760000463575125, 0.0, 0.0, 0.0, 0.0, 0.0, 1.667052617662074E9, 0.0, 2022-10-29 16:10:17.662
96.0, -9329.047673020046, -6232.361891009379, -6365.635095880367, -3400.2478515640832, 0.0, 0.03200000151991844, 0.9760000463575125, 0.0, 0.0, 0.0, 0.0, 0.0, 1.6670526176628513E9, 0.0, 2022-10-29 16:10:17.662
96.0, -9120.81191343721, -6468.502914111596, -6157.111364000943, -3305.203904040158, 0.0, 0.03200000151991844, 0.9760000463575125, 0.0, 0.0, 0.0, 0.0, 0.0, 1.6670526176628513E9, 0.0, 2022-10-29 16:10:17.662
97.0, -9349.355329779442, -6522.759512718767, -6013.413188003469, -3066.1046200729907, 0.0, 0.03200000151991844, 0.9760000463575125, 0.0, 0.0, 0.0, 0.0, 0.0, 1.667052617676401E9, 0.0, 2022-10-29 16:10:17.676
97.0, -9491.211605048738, -6604.145345604513, -5782.37712834077, -3116.576439925004, 0.0, 0.03200000151991844, 0.9760000463575125, 0.0, 0.0, 0.0, 0.0, 0.0, 1.667052617676401E9, 0.0, 2022-10-29 16:10:17.676
98.0, -9275.383848555852, -6669.395380131435, -5834.74320752034, -3322.4878516853787, 0.0, 0.03200000151991844, 0.9760000463575125, 0.0, 0.0, 0.0, 0.0, 0.0, 1.6670526176921213E9, 0.0, 2022-10-29 16:10:17.692
98.0, -9122.128358221613, -6497.7994204144925, -5697.920837591402, -3316.1730306101963, 0.0, 0.03200000151991844, 0.9760000463575125, 0.0, 0.0, 0.0, 0.0, 0.0, 1.6670526176921213E9, 0.0, 2022-10-29 16:10:17.692
99.0, -8996.549997509457, -6694.46766943438, -5688.4140119040385, -3285.3487751754, 0.0, 0.03200000151991844, 0.9760000463575125, 0.0, 0.0, 0.0, 0.0, 0.0, 1.6670526176928751E9, 0.0, 2022-10-29 16:10:17.692
99.0, -9058.974537619855, -6682.582267375197, -5853.356689599808, -3190.2580789020285, 0.0, 0.03200000151991844, 0.9760000463575125, 0.0, 0.0, 0.0, 0.0, 0.0, 1.6670526176928751E9, 0.0, 2022-10-29 16:10:17.692
100.0, -9106.179554860573, -6529.637188737281, -5678.6566129196435, -3305.3647197382525, 0.0, 0.03200000151991844, 0.9760000463575125, 0.0, 0.0, 0.0, 0.0, 0.0, 1.6670526177234344E9, 0.0, 2022-10-29 16:10:17.723
100.0, -9200.914960638154, -6590.754633813165, -5785.584092552774, -3528.767643591389, 0.0, 0.03200000151991844, 0.9760000463575125, 0.0, 0.0, 0.0, 0.0, 0.0, 1.6670526177234344E9, 0.0, 2022-10-29 16:10:17.723
0.0, -1436.209470633883, -1615.1580736637115, -1580.1918790279888, -2104.2378805191256, 0.0, 0.03200000151991844, 0.9760000463575125, 0.0, 0.0, 0.0, 0.0, 0.0, 1.6670526177241695E9, 0.0, 2022-10-29 16:10:17.724
1.0, -1311.9812138057314, -1416.6030451161787, -1556.9671003031544, -2307.8473838567734, 0.0, 0.03200000151991844, 0.9760000463575125, 0.0, 0.0, 0.0, 0.0, 0.0, 1.667052617724918E9, 0.0, 2022-10-29 16:10:17.724
1.0, -1079.421144911088, -1467.869593708776, -1590.4242453067563, -2512.4909695321694, 0.0, 0.03200000151991844, 0.9760000463575125, 0.0, 0.0, 0.0, 0.0, 0.0, 1.667052617724918E9, 0.0, 2022-10-29 16:10:17.724
2.0, -966.4294174998067, -1313.3761964892037, -1483.6407518219203, -2529.1784031344578, 0.0, 0.03200000151991844, 0.9760000463575125, 0.0, 0.0, 0.0, 0.0, 0.0, 1.667052617725666E9, 0.0, 2022-10-29 16:10:17.725
2.0, -1083.6621914608404, -1287.1333185001276, -1241.672964588739, -2645.2742475089617, 0.0, 0.03200000151991844, 0.9760000463575125, 0.0, 0.0, 0.0, 0.0, 0.0, 1.667052617725666E9, 0.0, 2022-10-29 16:10:17.725
3.0, -1026.2547271410003, -1156.2629993506707, -1278.4380511031486, -2493.767160404008, 0.0, 0.03200000151991844, 0.9760000463575125, 0.0, 0.0, 0.0, 0.0, 0.0, 1.667052617736407E9, 0.0, 2022-10-29 16:10:17.736
3.0, -938.361468332354, -1352.8246612218209, -1447.7059230976738, -2368.228068641387, 0.0, 0.03200000151991844, 0.9760000463575125, 0.0, 0.0, 0.0, 0.0, 0.0, 1.667052617736407E9, 0.0, 2022-10-29 16:10:17.736
4.0, -910.923692307435, -1275.7995516844094, -1434.6368427025154, -2472.7395729031414, 0.0, 0.03200000151991844, 0.9760000463575125, 0.0, 0.0, 0.0, 0.0, 0.0, 1.667052617751379E9, 0.0, 2022-10-29 16:10:17.751
4.0, -1020.4073935602792, -1248.7301558051258, -1671.138766150456, -2575.0464061410166, 0.0, 0.03200000151991844, 0.9760000463575125, 0.0, 0.0, 0.0, 0.0, 0.0, 1.667052617751379E9, 0.0, 2022-10-29 16:10:17.751
5.0, -931.450133214239, -1078.4151118230075, -1696.8225290961564, -2422.802558744792, 0.0, 0.03200000151991844, 0.9760000463575125, 0.0, 0.0, 0.0, 0.0, 0.0, 1.6670526177670383E9, 0.0, 2022-10-29 16:10:17.767
5.0, -946.7164048333652, -853.2114261412062, -1472.6734952018596, -2450.0626895218156, 0.0, 0.03200000151991844, 0.9760000463575125, 0.0, 0.0, 0.0, 0.0, 0.0, 1.6670526177670383E9, 0.0, 2022-10-29 16:10:17.767
6.0, -956.1970512210391, -829.8464011680335, -1493.5122177549638, -2578.6628893981688, 0.0, 0.03200000151991844, 0.9760000463575125, 0.0, 0.0, 0.0, 0.0, 0.0, 1.667052617767795E9, 0.0, 2022-10-29 16:10:17.767
6.0, -1025.8994366452098, -740.724585223943, -1684.0021520480514, -2606.699049415998, 0.0, 0.03200000151991844, 0.9760000463575125, 0.0, 0.0, 0.0, 0.0, 0.0, 1.667052617767795E9, 0.0, 2022-10-29 16:10:17.767
7.0, -885.7354661058635, -542.8913573678583, -1652.732848518528, -2385.835517632775, 0.0, 0.03200000151991844, 0.9760000463575125, 0.0, 0.0, 0.0, 0.0, 0.0, 1.6670526177977974E9, 0.0, 2022-10-29 16:10:17.797
7.0, -988.8519876841456, -416.9296569102444, -1507.862213884946, -2509.805721363984, 0.0, 0.03200000151991844, 0.9760000463575125, 0.0, 0.0, 0.0, 0.0, 0.0, 1.6670526177977974E9, 0.0, 2022-10-29 16:10:17.797
8.0, -999.6303793564439, -379.12487820815295, -1517.294241573196, -2624.392516106367, 0.0, 0.03200000151991844, 0.9760000463575125, 0.0, 0.0, 0.0, 0.0, 0.0, 1.667052617798521E9, 0.0, 2022-10-29 16:10:17.798
8.0, -1002.4857929726131, -231.24549406021833, -1652.7515480183065, -2642.121511846315, 0.0, 0.03200000151991844, 0.9760000463575125, 0.0, 0.0, 0.0, 0.0, 0.0, 1.667052617798521E9, 0.0, 2022-10-29 16:10:17.798
9.0, -833.3301179767586, -474.93550522299483, -1598.7174734584987, -2411.788553375285, 0.0, 0.03200000151991844, 0.9760000463575125, 0.0, 0.0, 0.0, 0.0, 0.0, 1.6670526177992458E9, 0.0, 2022-10-29 16:10:17.799
9.0, -986.808132358361, -403.2322733225301, -1504.7580969217233, -2592.036771639716, 0.0, 0.03200000151991844, 0.9760000463575125, 0.0, 0.0, 0.0, 0.0, 0.0, 1.6670526177992458E9, 0.0, 2022-10-29 16:10:17.799
10.0, -992.705954588484, -398.3872329299338, -1516.8678929782473, -2704.776055803988, 0.0, 0.03200000151991844, 0.9920000471174717, 0.0, 0.0, 0.0, 0.0, 0.0, 1.6670526178113463E9, 0.0, 2022-10-29 16:10:17.811
10.0, -984.7736267824657, -206.6350824018009, -1634.9533641291782, -2642.9255903367884, 0.0, 0.03200000151991844, 0.9920000471174717, 0.0, 0.0, 0.0, 0.0, 0.0, 1.6670526178113463E9, 0.0, 2022-10-29 16:10:17.811
11.0, -815.4421764886938, -435.3093952424824, -1565.6156189506873, -2857.3882833458483, 0.0, 0.03200000151991844, 0.9920000471174717, 0.0, 0.0, 0.0, 0.0, 0.0, 1.667052617827101E9, 0.0, 2022-10-29 16:10:17.827
11.0, -965.5542809101753, -370.2370059634559, -1477.6400823430158, -3023.705374275334, 0.0, 0.03200000151991844, 0.9920000471174717, 0.0, 0.0, 0.0, 0.0, 0.0, 1.667052617827101E9, 0.0, 2022-10-29 16:10:17.827
12.0, -1008.4621531018056, -368.41380473505706, -1524.6842838856392, -3130.116747714579, 0.0, 0.03200000151991844, 0.9920000471174717, 0.0, 0.0, 0.0, 0.0, 0.0, 1.6670526178278508E9, 0.0, 2022-10-29 16:10:17.827
12.0, -1017.937189639546, -213.60438596922904, -1648.1813902724534, -3112.157748127356, 0.0, 0.03200000151991844, 0.9920000471174717, 0.0, 0.0, 0.0, 0.0, 0.0, 1.6670526178278508E9, 0.0, 2022-10-29 16:10:17.827
13.0, -856.2687943549827, 24.440246210433543, -1596.0546646900475, -2879.188160187565, 0.0, 0.03200000151991844, 0.9920000471174717, 0.0, 0.0, 0.0, 0.0, 0.0, 1.667052617841352E9, 0.0, 2022-10-29 16:10:17.841
13.0, -923.5084556583315, 177.04125405242667, -1432.2975352802314, -2972.693138879724, 0.0, 0.03200000151991844, 0.9920000471174717, 0.0, 0.0, 0.0, 0.0, 0.0, 1.667052617841352E9, 0.0, 2022-10-29 16:10:17.841
14.0, -957.6088634543121, 159.70681775780395, -1467.8864232585765, -3067.376186057925, 0.0, 0.03200000151991844, 0.9920000471174717, 0.0, 0.0, 0.0, 0.0, 0.0, 1.667052617857071E9, 0.0, 2022-10-29 16:10:17.857
14.0, -1005.623569035437, 275.98404728015885, -1642.313487241976, -3088.9236196526326, 0.0, 0.03200000151991844, 0.9920000471174717, 0.0, 0.0, 0.0, 0.0, 0.0, 1.667052617857071E9, 0.0, 2022-10-29 16:10:17.857
15.0, -876.9747504596598, 496.89993766276166, -1611.956719301641, -2877.9035045527853, 0.0, 0.03200000151991844, 0.9920000471174717, 0.0, 0.0, 0.0, 0.0, 0.0, 1.6670526178578024E9, 0.0, 2022-10-29 16:10:17.857
15.0, -895.0983056449331, 698.2879404267296, -1394.565684627276, -2917.6025425824337, 0.0, 0.03200000151991844, 0.9920000471174717, 0.0, 0.0, 0.0, 0.0, 0.0, 1.6670526178578024E9, 0.0, 2022-10-29 16:10:17.857
16.0, -931.0200447193347, 695.5166745595634, -1436.9125718255527, -3055.4103761496954, 0.0, 0.03200000151991844, 0.9920000471174717, 0.0, 0.0, 0.0, 0.0, 0.0, 1.6670526178713813E9, 0.0, 2022-10-29 16:10:17.871
16.0, -1063.320875601843, 727.8107106769457, -1676.3316172389314, -3142.118086672388, 0.0, 0.03200000151991844, 0.9920000471174717, 0.0, 0.0, 0.0, 0.0, 0.0, 1.6670526178713813E9, 0.0, 2022-10-29 16:10:17.871
17.0, -985.3701408253983, 892.8076169220731, -1711.6306629707105, -3001.1014189431444, 0.0, 0.03200000151991844, 0.9920000471174717, 0.0, 0.0, 0.0, 0.0, 0.0, 1.6670526178870988E9, 0.0, 2022-10-29 16:10:17.887
17.0, -930.4515799260698, 668.4958973797038, -1913.2150104823522, -2985.2909918804653, 0.0, 0.03200000151991844, 0.9920000471174717, 0.0, 0.0, 0.0, 0.0, 0.0, 1.6670526178870988E9, 0.0, 2022-10-29 16:10:17.887
18.0, -964.5407680221833, 672.47328098258, -1946.8217514841817, -3107.024735438172, 0.0, 0.03200000151991844, 0.9920000471174717, 0.0, 0.0, 0.0, 0.0, 0.0, 1.6670526178878107E9, 0.0, 2022-10-29 16:10:17.887
18.0, -1131.8321028901264, 676.9050624300726, -1757.2424828303047, -3232.126258905977, 0.0, 0.03200000151991844, 0.9920000471174717, 0.0, 0.0, 0.0, 0.0, 0.0, 1.6670526178878107E9, 0.0, 2022-10-29 16:10:17.887
19.0, -1101.9241229444742, 775.133534766268, -1838.5722172167152, -3144.9566707387567, 0.0, 0.03200000151991844, 0.9920000471174717, 0.0, 0.0, 0.0, 0.0, 0.0, 1.667052617901369E9, 0.0, 2022-10-29 16:10:17.901
19.0, -892.5738731748424, 727.1393986348994, -1877.7514091525227, -2956.0150550273247, 0.0, 0.03200000151991844, 0.9920000471174717, 0.0, 0.0, 0.0, 0.0, 0.0, 1.667052617901369E9, 0.0, 2022-10-29 16:10:17.901
20.0, -926.4648465733044, 696.3076634001918, -1936.6062147552148, -3064.9022422372364, 0.0, 0.03200000151991844, 0.9920000471174717, 0.0, 0.0, 0.0, 0.0, 0.0, 1.6670526179171145E9, 0.0, 2022-10-29 16:10:17.917
20.0, -1142.3636611653492, 644.9906261581928, -1775.184652867727, -3247.6543235220015, 0.0, 0.03200000151991844, 0.9920000471174717, 0.0, 0.0, 0.0, 0.0, 0.0, 1.6670526179171145E9, 0.0, 2022-10-29 16:10:17.917
21.0, -1144.2579204929061, 744.90953327436, -1879.870062477421, -3162.777294027619, 0.0, 0.03200000151991844, 0.9920000471174717, 0.0, 0.0, 0.0, 0.0, 0.0, 1.6670526179178336E9, 0.0, 2022-10-29 16:10:17.917
21.0, -1327.0941495266743, 769.2731115357019, -1830.4042757134885, -3386.258755779825, 0.0, 0.03200000151991844, 0.9920000471174717, 0.0, 0.0, 0.0, 0.0, 0.0, 1.6670526179178336E9, 0.0, 2022-10-29 16:10:17.917
22.0, -1363.9359039901756, 761.5502181272022, -1867.1375730782747, -3481.3980707526207, 0.0, 0.03200000151991844, 0.9920000471174717, 0.0, 0.0, 0.0, 0.0, 0.0, 1.6670526179641855E9, 0.0, 2022-10-29 16:10:17.964
22.0, -1153.8806830788963, 640.3456704132259, -1789.0372423036024, -3237.844565938227, 0.0, 0.03200000151991844, 0.9920000471174717, 0.0, 0.0, 0.0, 0.0, 0.0, 1.6670526179641855E9, 0.0, 2022-10-29 16:10:17.964
23.0, -1157.9403444807976, 717.7316802963614, -1906.6402663602494, -3178.952361335978, 0.0, 0.03200000151991844, 0.9920000471174717, 0.0, 0.0, 0.0, 0.0, 0.0, 1.6670526179648716E9, 0.0, 2022-10-29 16:10:17.964
23.0, -1334.732895186171, 746.815012301784, -1852.6417208500206, -3411.323565282859, 0.0, 0.03200000151991844, 0.9920000471174717, 0.0, 0.0, 0.0, 0.0, 0.0, 1.6670526179648716E9, 0.0, 2022-10-29 16:10:17.964
24.0, -1375.471625403501, 745.573365516495, -1889.1431444175541, -3513.112422376871, 0.0, 0.03200000151991844, 0.9920000471174717, 0.0, 0.0, 0.0, 0.0, 0.0, 1.6670526179657147E9, 0.0, 2022-10-29 16:10:17.965
24.0, -1219.046569856815, 576.5167978694662, -1854.3545950297266, -3320.698309556581, 0.0, 0.03200000151991844, 0.9920000471174717, 0.0, 0.0, 0.0, 0.0, 0.0, 1.6670526179657147E9, 0.0, 2022-10-29 16:10:17.965
25.0, -1247.7334724669345, 630.6668093279004, -1994.1763647231273, -3295.6933384528384, 0.0, 0.03200000151991844, 0.9920000471174717, 0.0, 0.0, 0.0, 0.0, 0.0, 1.6670526179664097E9, 0.0, 2022-10-29 16:10:17.966
25.0, -1345.5056770085357, 754.6949815084226, -1855.5962418150157, -3408.9038500115275, 0.0, 0.03200000151991844, 0.9920000471174717, 0.0, 0.0, 0.0, 0.0, 0.0, 1.6670526179664097E9, 0.0, 2022-10-29 16:10:17.966
26.0, -1380.9412290886976, 751.699321643915, -1885.6425980590284, -3520.6969394870102, 0.0, 0.03200000151991844, 0.9920000471174717, 0.0, 0.0, 0.0, 0.0, 0.0, 1.6670526179771645E9, 0.0, 2022-10-29 16:10:17.977
26.0, -1229.8193516791798, 562.79510493204, -1866.4643910862505, -3347.9883595332503, 0.0, 0.03200000151991844, 0.9920000471174717, 0.0, 0.0, 0.0, 0.0, 0.0, 1.6670526179771645E9, 0.0, 2022-10-29 16:10:17.977
27.0, -1314.0325489314273, 584.0227770805359, -2046.0674766083248, -3360.6385711333714, 0.0, 0.03200000151991844, 0.9920000471174717, 0.0, 0.0, 0.0, 0.0, 0.0, 1.6670526179778516E9, 0.0, 2022-10-29 16:10:17.977
27.0, -1304.557512393687, 809.6640310571529, -1805.6311784069985, -3392.386581857223, 0.0, 0.03200000151991844, 0.9920000471174717, 0.0, 0.0, 0.0, 0.0, 0.0, 1.6670526179778516E9, 0.0, 2022-10-29 16:10:17.977
28.0, -1348.4714176733978, 802.4497640426271, -1850.5174576751888, -3505.5484747164883, 0.0, 0.03200000151991844, 0.9920000471174717, 0.0, 0.0, 0.0, 0.0, 0.0, 1.667052617991358E9, 0.0, 2022-10-29 16:10:17.991
28.0, -1230.963761065621, 582.0294104041532, -1852.071386106778, -3330.3566011921503, 0.0, 0.03200000151991844, 0.9920000471174717, 0.0, 0.0, 0.0, 0.0, 0.0, 1.667052617991358E9, 0.0, 2022-10-29 16:10:17.991
29.0, -1315.7641226109117, 603.9714034441859, -2042.086353105493, -3354.8398562520742, 0.0, 0.03200000151991844, 0.9920000471174717, 0.0, 0.0, 0.0, 0.0, 0.0, 1.667052618007178E9, 0.0, 2022-10-29 16:10:18.007
29.0, -1257.9583589457907, 375.97214254550636, -2236.1796810058877, -3378.116993576288, 0.0, 0.03200000151991844, 0.9920000471174717, 0.0, 0.0, 0.0, 0.0, 0.0, 1.667052618007178E9, 0.0, 2022-10-29 16:10:18.007
30.0, -1281.0223219725303, 358.19265815615654, -2267.2844289373606, -3463.712083862163, 0.0, 0.03200000151991844, 0.9920000471174717, 0.0, 0.0, 0.0, 0.0, 0.0, 1.6670526180078628E9, 0.0, 2022-10-29 16:10:18.007
30.0, -1228.0765582998283, 586.5509494505823, -2339.761820128653, -3351.402888192795, 0.0, 0.03200000151991844, 0.9920000471174717, 0.0, 0.0, 0.0, 0.0, 0.0, 1.6670526180078628E9, 0.0, 2022-10-29 16:10:18.007
31.0, -1337.9866081476212, 561.8507801932283, -2555.4362407233566, -3393.411314445082, 0.0, 0.01600000075995922, 0.9920000471174717, 0.0, 0.0, 0.0, 0.0, 0.0, 1.6670526180377295E9, 0.0, 2022-10-29 16:10:18.037
31.0, -1188.8487476645969, 462.32830247236416, -2662.973324049264, -3335.886043276638, 0.0, 0.01600000075995922, 0.9920000471174717, 0.0, 0.0, 0.0, 0.0, 0.0, 1.6670526180377295E9, 0.0, 2022-10-29 16:10:18.037
32.0, -1260.426692916546, 407.3143741241656, -2730.983404743485, -3460.020802605897, 0.0, 0.01600000075995922, 0.9920000471174717, 0.0, 0.0, 0.0, 0.0, 0.0, 1.6670526180385115E9, 0.0, 2022-10-29 16:10:18.038
32.0, -1250.8525490299799, 556.4129656576551, -2845.6169482353143, -3377.900079378858, 0.0, 0.01600000075995922, 0.9920000471174717, 0.0, 0.0, 0.0, 0.0, 0.0, 1.6670526180385115E9, 0.0, 2022-10-29 16:10:18.038
33.0, -1315.9959964081645, 590.5395527533256, -3021.4090757025406, -3368.7448042873293, 0.0, 0.01600000075995922, 0.9920000471174717, 0.0, 0.0, 0.0, 0.0, 0.0, 1.6670526180392597E9, 0.0, 2022-10-29 16:10:18.039
33.0, -1208.7038765293546, 424.42815632140264, -3176.6523228632286, -3391.2814414203167, 0.0, 0.01600000075995922, 0.9920000471174717, 0.0, 0.0, 0.0, 0.0, 0.0, 1.6670526180392597E9, 0.0, 2022-10-29 16:10:18.039
34.0, -1264.8921334636398, 398.3498339303769, -3225.52907538414, -3471.2330226730555, 0.0, 0.01600000075995922, 0.9920000471174717, 0.0, 0.0, 0.0, 0.0, 0.0, 1.6670526180513961E9, 0.0, 2022-10-29 16:10:18.051
34.0, -1207.312633745838, 619.3480021120049, -3286.244481214788, -3308.203303804621, 0.0, 0.01600000075995922, 0.9920000471174717, 0.0, 0.0, 0.0, 0.0, 0.0, 1.6670526180513961E9, 0.0, 2022-10-29 16:10:18.051
35.0, -1261.849724849686, 667.4618150419556, -3446.6805794639513, -3301.4340848848224, 0.0, 0.01600000075995922, 0.9920000471174717, 0.0, 0.0, 0.0, 0.0, 0.0, 1.667052618067089E9, 0.0, 2022-10-29 16:10:18.067
35.0, -1134.4107639095746, 516.7775059272535, -3585.80111791566, -3314.1347851343453, 0.0, 0.01600000075995922, 0.9920000471174717, 0.0, 0.0, 0.0, 0.0, 0.0, 1.667052618067089E9, 0.0, 2022-10-29 16:10:18.067
36.0, -1200.4573971270584, 471.6144740623422, -3655.583911188878, -3407.6734229261056, 0.0, 0.01600000075995922, 0.9920000471174717, 0.0, 0.0, 0.0, 0.0, 0.0, 1.6670526180678124E9, 0.0, 2022-10-29 16:10:18.067
36.0, -1167.1535880216397, 648.919391061645, -3745.9230645685457, -3252.594731363468, 0.0, 0.01600000075995922, 0.9920000471174717, 0.0, 0.0, 0.0, 0.0, 0.0, 1.6670526180678124E9, 0.0, 2022-10-29 16:10:18.067
37.0, -1239.3056079167873, 689.6992601784877, -3912.2420254480094, -3270.686497399118, 0.0, 0.01600000075995922, 0.9920000471174717, 0.0, 0.0, 0.0, 0.0, 0.0, 1.667052618081397E9, 0.0, 2022-10-29 16:10:18.081
37.0, -1126.8711255989037, 527.8401299961843, -4061.991359573789, -3329.6908990000375, 0.0, 0.01600000075995922, 0.9920000471174717, 0.0, 0.0, 0.0, 0.0, 0.0, 1.667052618081397E9, 0.0, 2022-10-29 16:10:18.081
38.0, -1210.0764198130928, 459.73655180307105, -4150.7017865227535, -3439.640217797365, 0.0, 0.01600000075995922, 0.9920000471174717, 0.0, 0.0, 0.0, 0.0, 0.0, 1.6670526181127112E9, 0.0, 2022-10-29 16:10:18.112
38.0, -1168.2381590087898, 674.0029000644572, -4221.122232738417, -3272.085219982546, 0.0, 0.01600000075995922, 0.9920000471174717, 0.0, 0.0, 0.0, 0.0, 0.0, 1.6670526181127112E9, 0.0, 2022-10-29 16:10:18.112
39.0, -1219.3270623534918, 713.0250162021257, -4383.892028559931, -3272.891168422997, 0.0, 0.01600000075995922, 0.9920000471174717, 0.0, 0.0, 0.0, 0.0, 0.0, 1.6670526181284745E9, 0.0, 2022-10-29 16:10:18.128
39.0, -1136.8753579803742, 542.9455859172158, -4553.260877853259, -3348.2277131304145, 0.0, 0.01600000075995922, 0.9920000471174717, 0.0, 0.0, 0.0, 0.0, 0.0, 1.6670526181284745E9, 0.0, 2022-10-29 16:10:18.128
40.0, -1227.044345912058, 460.96323898853734, -4643.048395989463, -3466.5992866279557, 0.0, 0.01600000075995922, 0.9920000471174717, 0.0, 0.0, 0.0, 0.0, 0.0, 1.6670526181292584E9, 0.0, 2022-10-29 16:10:18.129
40.0, -1183.7512640249915, 664.0809454820119, -4721.502147309948, -3271.6682211374864, 0.0, 0.01600000075995922, 0.9920000471174717, 0.0, 0.0, 0.0, 0.0, 0.0, 1.6670526181292584E9, 0.0, 2022-10-29 16:10:18.129
41.0, -1216.5894555859268, 724.1998372697271, -4864.072743470781, -3275.4324304428883, 0.0, 0.03200000151991844, 0.9920000471174717, 0.0, 0.0, 0.0, 0.0, 0.0, 1.6670526181300356E9, 0.0, 2022-10-29 16:10:18.130
41.0, -1132.7689478290267, 545.6121345856227, -5028.0972757274285, -3381.952260980848, 0.0, 0.03200000151991844, 0.9920000471174717, 0.0, 0.0, 0.0, 0.0, 0.0, 1.6670526181300356E9, 0.0, 2022-10-29 16:10:18.130
42.0, -1238.0284320819192, 466.7638238198124, -5124.571734984405, -3493.3190018613823, 0.0, 0.03200000151991844, 0.9920000471174717, 0.0, 0.0, 0.0, 0.0, 0.0, 1.6670526181307704E9, 0.0, 2022-10-29 16:10:18.130
42.0, -1185.1462467084639, 682.1596218678169, -5203.825824895408, -3289.1877824799158, 0.0, 0.03200000151991844, 0.9920000471174717, 0.0, 0.0, 0.0, 0.0, 0.0, 1.6670526181307704E9, 0.0, 2022-10-29 16:10:18.130
43.0, -1218.3659080648795, 746.1044313102029, -5343.05669039581, -3296.29920224566, 0.0, 0.03200000151991844, 0.9920000471174717, 0.0, 0.0, 0.0, 0.0, 0.0, 1.6670526181414032E9, 0.0, 2022-10-29 16:10:18.141
43.0, -1099.3791210246272, 596.8487639785744, -5478.194235394709, -3399.4980016229674, 0.0, 0.03200000151991844, 0.9920000471174717, 0.0, 0.0, 0.0, 0.0, 0.0, 1.6670526181414032E9, 0.0, 2022-10-29 16:10:18.141
44.0, -1193.5946807083674, 515.2142277457751, -5569.556251412258, -3499.072837943211, 0.0, 0.03200000151991844, 0.9920000471174717, 0.0, 0.0, 0.0, 0.0, 0.0, 1.6670526181570847E9, 0.0, 2022-10-29 16:10:18.157
44.0, -1117.2633226127364, 750.9962204522453, -5620.34970266046, -3264.233300025575, 0.0, 0.03200000151991844, 0.9920000471174717, 0.0, 0.0, 0.0, 0.0, 0.0, 1.6670526181570847E9, 0.0, 2022-10-29 16:10:18.157
45.0, -1170.0351809374988, 806.8628459903412, -5773.88194559142, -3267.694577434566, 0.0, 0.03200000151991844, 0.9920000471174717, 0.0, 0.0, 0.0, 0.0, 0.0, 1.6670526181577823E9, 0.0, 2022-10-29 16:10:18.157
45.0, -1072.1900483467616, 657.0424537654035, -5932.442484012805, -3416.2022647750564, 0.0, 0.03200000151991844, 0.9920000471174717, 0.0, 0.0, 0.0, 0.0, 0.0, 1.6670526181577823E9, 0.0, 2022-10-29 16:10:18.157
46.0, -1202.8060542992316, 543.5514497100376, -6054.284684669226, -3519.2327686543576, 0.0, 0.03200000151991844, 0.9920000471174717, 0.0, 0.0, 0.0, 0.0, 0.0, 1.6670526181714091E9, 0.0, 2022-10-29 16:10:18.171
46.0, -1159.0754041173495, 743.0414532464929, -6126.541421763133, -3275.6605643401854, 0.0, 0.03200000151991844, 0.9920000471174717, 0.0, 0.0, 0.0, 0.0, 0.0, 1.6670526181714091E9, 0.0, 2022-10-29 16:10:18.171
47.0, -1184.9536418607458, 819.3241926426999, -6276.315065238625, -3257.925958750304, 0.0, 0.03200000151991844, 0.9920000471174717, 0.0, 0.0, 0.0, 0.0, 0.0, 1.6670526181870556E9, 0.0, 2022-10-29 16:10:18.187
47.0, -1095.1941729742102, 644.8989986092784, -6426.711402056739, -3423.8727995841764, 0.0, 0.03200000151991844, 0.9920000471174717, 0.0, 0.0, 0.0, 0.0, 0.0, 1.6670526181870556E9, 0.0, 2022-10-29 16:10:18.187
48.0, -1245.9271007883362, 512.622477076482, -6575.948369888589, -3512.665504332166, 0.0, 0.03200000151991844, 0.9920000471174717, 0.0, 0.0, 0.0, 0.0, 0.0, 1.6670526181878054E9, 0.0, 2022-10-29 16:10:18.187
48.0, -1201.9271778096445, 707.8938734629191, -6651.417681044433, -3743.5239187469706, 0.0, 0.03200000151991844, 0.9920000471174717, 0.0, 0.0, 0.0, 0.0, 0.0, 1.6670526181878054E9, 0.0, 2022-10-29 16:10:18.187
49.0, -1208.9264005767182, 819.8963973359205, -6760.609670100734, -3690.1779857790098, 0.0, 0.03200000151991844, 0.9920000471174717, 0.0, 0.0, 0.0, 0.0, 0.0, 1.6670526182013974E9, 0.0, 2022-10-29 16:10:18.201
49.0, -1116.4293249226175, 645.7404760993086, -6918.747599827126, -3849.8118754876778, 0.0, 0.03200000151991844, 0.9920000471174717, 0.0, 0.0, 0.0, 0.0, 0.0, 1.6670526182013974E9, 0.0, 2022-10-29 16:10:18.201
50.0, -1256.1856463667937, 529.36226927815, -7038.203744311817, -3887.2146149445325, 0.0, 0.03200000151991844, 0.9920000471174717, 0.0, 0.0, 0.0, 0.0, 0.0, 1.6670526182171016E9, 0.0, 2022-10-29 16:10:18.217
50.0, -1177.8646614947356, 764.1419687964953, -7077.930831591133, -3910.9872890128754, 0.0, 0.03200000151991844, 0.9920000471174717, 0.0, 0.0, 0.0, 0.0, 0.0, 1.6670526182171016E9, 0.0, 2022-10-29 16:10:18.217
51.0, -1189.860390602611, 830.9552815048955, -7216.32395950146, -3946.162918046117, 0.0, 0.03200000151991844, 0.9920000471174717, 0.0, 0.0, 0.0, 0.0, 0.0, 1.6670526182177808E9, 0.0, 2022-10-29 16:10:18.217
51.0, -1149.3591440324672, 624.3931271522306, -7421.573408969678, -3839.820732756052, 0.0, 0.03200000151991844, 0.9920000471174717, 0.0, 0.0, 0.0, 0.0, 0.0, 1.6670526182177808E9, 0.0, 2022-10-29 16:10:18.217
52.0, -1298.296919867862, 497.78629395226017, -7568.5252979286015, -4010.5247263335623, 0.0, 0.03200000151991844, 0.9920000471174717, 0.0, 0.0, 0.0, 0.0, 0.0, 1.6670526182314048E9, 0.0, 2022-10-29 16:10:18.231
52.0, -1215.5703328480013, 713.395266297739, -7616.584882309195, -4181.608319756575, 0.0, 0.03200000151991844, 0.9920000471174717, 0.0, 0.0, 0.0, 0.0, 0.0, 1.6670526182314048E9, 0.0, 2022-10-29 16:10:18.231
53.0, -1208.0082551375963, 844.6545350425877, -7717.9193415585905, -4141.232359834947, 0.0, 0.03200000151991844, 0.9920000471174717, 0.0, 0.0, 0.0, 0.0, 0.0, 1.6670526182471004E9, 0.0, 2022-10-29 16:10:18.247
53.0, -1110.585731241852, 690.2826845715754, -7866.187675301917, -3914.1849034749903, 0.0, 0.03200000151991844, 0.9920000471174717, 0.0, 0.0, 0.0, 0.0, 0.0, 1.6670526182471004E9, 0.0, 2022-10-29 16:10:18.247
54.0, -1237.667531736195, 568.6760976123624, -7978.104181475937, -3993.437123436015, 0.0, 0.03200000151991844, 0.9920000471174717, 0.0, 0.0, 0.0, 0.0, 0.0, 1.667052618247866E9, 0.0, 2022-10-29 16:10:18.247
54.0, -1148.3437611944973, 799.9402911723591, -8008.683473463636, -4119.271667295136, 0.0, 0.03200000151991844, 0.9920000471174717, 0.0, 0.0, 0.0, 0.0, 0.0, 1.667052618247866E9, 0.0, 2022-10-29 16:10:18.247
55.0, -1133.7805907670408, 909.3398446762003, -8113.989706465974, -4057.466080627404, 0.0, 0.03200000151991844, 0.9920000471174717, 0.0, 0.0, 0.0, 0.0, 0.0, 1.6670526182613995E9, 0.0, 2022-10-29 16:10:18.261
55.0, -1135.396227547899, 668.6436234279536, -8357.752645677887, -3967.9721446377225, 0.0, 0.03200000151991844, 0.9920000471174717, 0.0, 0.0, 0.0, 0.0, 0.0, 1.6670526182613995E9, 0.0, 2022-10-29 16:10:18.261
56.0, -1365.9498401163146, 473.78735593659803, -8583.272352905944, -4145.508935434278, 0.0, 0.03200000151991844, 0.9920000471174717, 0.0, 0.0, 0.0, 0.0, 0.0, 1.6670526182771163E9, 0.0, 2022-10-29 16:10:18.277
56.0, -1341.0458463113755, 635.7886023172177, -8691.589205372613, -4362.9560686079785, 0.0, 0.03200000151991844, 0.9920000471174717, 0.0, 0.0, 0.0, 0.0, 0.0, 1.6670526182771163E9, 0.0, 2022-10-29 16:10:18.277
57.0, -1333.7006827984005, 748.5353662814014, -8796.42795088049, -4282.230328064412, 0.0, 0.03200000151991844, 0.9920000471174717, 0.0, 0.0, 0.0, 0.0, 0.0, 1.6670526182778516E9, 0.0, 2022-10-29 16:10:18.277
57.0, -1212.1670238883235, 613.3454626831226, -8919.178947226144, -4065.003848988097, 0.0, 0.03200000151991844, 0.9920000471174717, 0.0, 0.0, 0.0, 0.0, 0.0, 1.6670526182778516E9, 0.0, 2022-10-29 16:10:18.277
58.0, -1387.8076854073443, 437.521546066273, -9091.97728477884, -4187.9455802314915, 0.0, 0.03200000151991844, 0.9920000471174717, 0.0, 0.0, 0.0, 0.0, 0.0, 1.6670526182913747E9, 0.0, 2022-10-29 16:10:18.291
58.0, -1355.6894245878793, 636.9330117036588, -9182.574491255451, -4424.604579477571, 0.0, 0.03200000151991844, 0.9920000471174717, 0.0, 0.0, 0.0, 0.0, 0.0, 1.6670526182913747E9, 0.0, 2022-10-29 16:10:18.291
59.0, -1361.8509097648785, 727.662984628696, -9296.766726552509, -4381.778985084966, 0.0, 0.03200000151991844, 0.9920000471174717, 0.0, 0.0, 0.0, 0.0, 0.0, 1.6670526183071048E9, 0.0, 2022-10-29 16:10:18.307
59.0, -1225.271633333061, 625.5300567387603, -9399.894467830658, -4184.142101976555, 0.0, 0.03200000151991844, 0.9920000471174717, 0.0, 0.0, 0.0, 0.0, 0.0, 1.6670526183071048E9, 0.0, 2022-10-29 16:10:18.307
60.0, -1403.6274622199126, 446.2392528629862, -9577.808988522738, -4299.170204913709, 0.0, 0.03200000151991844, 0.9920000471174717, 0.0, 0.0, 0.0, 0.0, 0.0, 1.6670526183078215E9, 0.0, 2022-10-29 16:10:18.307
60.0, -1335.8455154229887, 664.899983572308, -9637.952189660165, -4400.227911566384, 0.0, 0.03200000151991844, 0.9920000471174717, 0.0, 0.0, 0.0, 0.0, 0.0, 1.6670526183078215E9, 0.0, 2022-10-29 16:10:18.307
61.0, -1324.7380125545897, 772.7886174940504, -9755.121385321952, -4312.912467300892, 0.0, 0.03200000151991844, 0.9920000471174717, 0.0, 0.0, 0.0, 0.0, 0.0, 1.667052618321369E9, 0.0, 2022-10-29 16:10:18.321
61.0, -1199.7000673860312, 672.7088946797885, -9850.350457893685, -4118.525557253975, 0.0, 0.03200000151991844, 0.9920000471174717, 0.0, 0.0, 0.0, 0.0, 0.0, 1.667052618321369E9, 0.0, 2022-10-29 16:10:18.321
62.0, -1374.8956808103248, 521.837590567302, -10021.615436464548, -4205.74376412062, 0.0, 0.03200000151991844, 0.9920000471174717, 0.0, 0.0, 0.0, 0.0, 0.0, 1.6670526183534396E9, 0.0, 2022-10-29 16:10:18.353
62.0, -1347.3737570364028, 660.9282098193653, -10126.985247766133, -4339.349820087664, 0.0, 0.03200000151991844, 0.9920000471174717, 0.0, 0.0, 0.0, 0.0, 0.0, 1.6670526183534396E9, 0.0, 2022-10-29 16:10:18.353
63.0, -1313.0639148429036, 789.9771976904012, -10222.208710487932, -4223.742032657377, 0.0, 0.03200000151991844, 0.9920000471174717, 0.0, 0.0, 0.0, 0.0, 0.0, 1.667052618354152E9, 0.0, 2022-10-29 16:10:18.354
63.0, -1202.6227992014028, 665.3712109667249, -10336.346717235632, -4070.434183723759, 0.0, 0.03200000151991844, 0.9920000471174717, 0.0, 0.0, 0.0, 0.0, 0.0, 1.667052618354152E9, 0.0, 2022-10-29 16:10:18.354
64.0, -1402.1801209370606, 483.5746741206385, -10529.052542252466, -4177.85533015104, 0.0, 0.03200000151991844, 0.9920000471174717, 0.0, 0.0, 0.0, 0.0, 0.0, 1.6670526183548975E9, 0.0, 2022-10-29 16:10:18.354
64.0, -1352.6227066242136, 670.809025502298, -10614.615843388718, -4270.296307305805, 0.0, 0.03200000151991844, 0.9920000471174717, 0.0, 0.0, 0.0, 0.0, 0.0, 1.6670526183548975E9, 0.0, 2022-10-29 16:10:18.354
65.0, -1329.2221526014619, 790.8448544801213, -10710.437690103427, -4171.432051977143, 0.0, 0.03200000151991844, 0.9920000471174717, 0.0, 0.0, 0.0, 0.0, 0.0, 1.6670526183556361E9, 0.0, 2022-10-29 16:10:18.355
65.0, -1232.4615909978747, 680.5215456872247, -10816.306778049096, -4062.0119290235452, 0.0, 0.03200000151991844, 0.9920000471174717, 0.0, 0.0, 0.0, 0.0, 0.0, 1.6670526183556361E9, 0.0, 2022-10-29 16:10:18.355
66.0, -1455.385807656683, 504.31241937493905, -11031.302406801842, -4158.923956575338, 0.0, 0.03200000151991844, 0.9920000471174717, 0.0, 0.0, 0.0, 0.0, 0.0, 1.6670526183663824E9, 0.0, 2022-10-29 16:10:18.366
66.0, -1382.068808925338, 695.316589911934, -11084.683868819382, -4233.529350841418, 0.0, 0.03200000151991844, 0.9920000471174717, 0.0, 0.0, 0.0, 0.0, 0.0, 1.6670526183663824E9, 0.0, 2022-10-29 16:10:18.366
67.0, -1330.2562349392101, 825.6221841680817, -11155.452125730924, -4110.239808902144, 0.0, 0.03200000151991844, 0.9920000471174717, 0.0, 0.0, 0.0, 0.0, 0.0, 1.6670526183813927E9, 0.0, 2022-10-29 16:10:18.381
67.0, -1252.3410292123444, 680.8656164831482, -11293.701267492957, -4032.997785167303, 0.0, 0.03200000151991844, 0.9920000471174717, 0.0, 0.0, 0.0, 0.0, 0.0, 1.6670526183813927E9, 0.0, 2022-10-29 16:10:18.381
68.0, -1465.7285009841435, 472.96831784630194, -11496.336526892148, -4134.8427407606505, 0.0, 0.03200000151991844, 0.9920000471174717, 0.0, 0.0, 0.0, 0.0, 0.0, 1.6670526183970616E9, 0.0, 2022-10-29 16:10:18.397
68.0, -1400.5532644563355, 679.9456010940485, -11572.6323559382, -4212.469974190928, 0.0, 0.03200000151991844, 0.9920000471174717, 0.0, 0.0, 0.0, 0.0, 0.0, 1.6670526183970616E9, 0.0, 2022-10-29 16:10:18.397
69.0, -1324.1097093620338, 859.0494099720381, -11627.416280439124, -4089.995730441995, 0.0, 0.03200000151991844, 0.9920000471174717, 0.0, 0.0, 0.0, 0.0, 0.0, 1.6670526183978052E9, 0.0, 2022-10-29 16:10:18.397
69.0, -1232.1063005020842, 718.5787676363252, -11752.085845462047, -4017.585657449905, 0.0, 0.03200000151991844, 0.9920000471174717, 0.0, 0.0, 0.0, 0.0, 0.0, 1.6670526183978052E9, 0.0, 2022-10-29 16:10:18.397
70.0, -987.6421300484799, 474.5502955275588, -11989.266560751945, -4146.993675716687, 0.0, 0.03200000151991844, 0.9920000471174717, 0.0, 0.0, 0.0, 0.0, 0.0, 1.6670526184114392E9, 0.0, 2022-10-29 16:10:18.411
70.0, -912.9899870329536, 683.1506953560747, -12061.960866140667, -4205.726934570819, 0.0, 0.03200000151991844, 0.9920000471174717, 0.0, 0.0, 0.0, 0.0, 0.0, 1.6670526184114392E9, 0.0, 2022-10-29 16:10:18.411
71.0, -838.7193138129078, 846.2477324237116, -12118.502543620765, -4073.880501532927, 0.0, 0.03200000151991844, 0.9920000471174717, 0.0, 0.0, 0.0, 0.0, 0.0, 1.6670526184271722E9, 0.0, 2022-10-29 16:10:18.427
71.0, -765.0002758363262, 709.2664167466573, -12251.945913939737, -4023.4647801802494, 0.0, 0.03200000151991844, 0.9920000471174717, 0.0, 0.0, 0.0, 0.0, 0.0, 1.6670526184271722E9, 0.0, 2022-10-29 16:10:18.427
72.0, -530.0691103697754, 474.7971289246343, -12492.563597288914, -4152.5474271508865, 0.0, 0.03200000151991844, 0.9920000471174717, 0.0, 0.0, 0.0, 0.0, 0.0, 1.6670526184278247E9, 0.0, 2022-10-29 16:10:18.427
72.0, -466.5356899225153, 641.1179597540759, -12587.809499410447, -4231.128335069865, 0.0, 0.03200000151991844, 0.9920000471174717, 0.0, 0.0, 0.0, 0.0, 0.0, 1.6670526184278247E9, 0.0, 2022-10-29 16:10:18.427
73.0, -356.02912603178993, 845.350156434346, -12623.841565533541, -4078.3721213797107, 0.0, 0.03200000151991844, 0.9920000471174717, 0.0, 0.0, 0.0, 0.0, 0.0, 1.6670526184414165E9, 0.0, 2022-10-29 16:10:18.441
73.0, -276.00835662987083, 706.098721484188, -12741.588575738482, -4050.9979236540385, 0.0, 0.03200000151991844, 0.9920000471174717, 0.0, 0.0, 0.0, 0.0, 0.0, 1.6670526184414165E9, 0.0, 2022-10-29 16:10:18.441
74.0, -35.92734892433509, 945.3345117997378, -12981.439579596743, -4192.194106581155, 0.0, 0.03200000151991844, 0.9920000471174717, 0.0, 0.0, 0.0, 0.0, 0.0, 1.6670526184570687E9, 0.0, 2022-10-29 16:10:18.457
74.0, 30.84108498459682, 1132.6848000800237, -13074.587397843134, -4243.862694418989, 0.0, 0.03200000151991844, 0.9920000471174717, 0.0, 0.0, 0.0, 0.0, 0.0, 1.6670526184570687E9, 0.0, 2022-10-29 16:10:18.457
75.0, 143.1203614543192, 1333.0761195058003, -13112.668929141946, -4083.458385319449, 0.0, 0.03200000151991844, 0.9920000471174717, 0.0, 0.0, 0.0, 0.0, 0.0, 1.6670526184578025E9, 0.0, 2022-10-29 16:10:18.457
75.0, 231.61948405578732, 1206.7310793027282, -13225.647566903383, -4067.079493463505, 0.0, 0.03200000151991844, 0.9920000471174717, 0.0, 0.0, 0.0, 0.0, 0.0, 1.6670526184578025E9, 0.0, 2022-10-29 16:10:18.457
76.0, 453.5956360758282, 1445.641498322133, -12988.300426065456, -4208.058762193192, 0.0, 0.03200000151991844, 0.9920000471174717, 0.0, 0.0, 0.0, 0.0, 0.0, 1.6670526184714274E9, 0.0, 2022-10-29 16:10:18.471
76.0, 513.912742561195, 1626.525499579031, -13088.587713327259, -4265.359639364295, 0.0, 0.03200000151991844, 0.9920000471174717, 0.0, 0.0, 0.0, 0.0, 0.0, 1.6670526184714274E9, 0.0, 2022-10-29 16:10:18.471
77.0, 627.9684715098701, 1825.1366266258992, -13132.757801753934, -4105.142325262539, 0.0, 0.03200000151991844, 0.9920000471174717, 0.0, 0.0, 0.0, 0.0, 0.0, 1.6670526184870648E9, 0.0, 2022-10-29 16:10:18.487
77.0, 751.5628152955323, 1724.0658303233795, -13199.470137163531, -4071.832906307187, 0.0, 0.03200000151991844, 0.9920000471174717, 0.0, 0.0, 0.0, 0.0, 0.0, 1.6670526184870648E9, 0.0, 2022-10-29 16:10:18.487
78.0, 964.6866241204552, 1958.3873920971528, -12984.386620761827, -4224.52928159805, 0.0, 0.03200000151991844, 0.9920000471174717, 0.0, 0.0, 0.0, 0.0, 0.0, 1.6670526184878423E9, 0.0, 2022-10-29 16:10:18.487
78.0, 1011.1960199694149, 2107.0970340352505, -13091.544104242232, -4286.759346910752, 0.0, 0.03200000151991844, 0.9920000471174717, 0.0, 0.0, 0.0, 0.0, 0.0, 1.6670526184878423E9, 0.0, 2022-10-29 16:10:18.487
79.0, 1129.664830865804, 2300.988407338038, -13131.405827919953, -4096.61161346361, 0.0, 0.03200000151991844, 0.9920000471174717, 0.0, 0.0, 0.0, 0.0, 0.0, 1.667052618517776E9, 0.0, 2022-10-29 16:10:18.517
79.0, 1282.8156040012836, 2244.2616048101336, -13160.872499670833, -4019.190074530896, 0.0, 0.03200000151991844, 0.9920000471174717, 0.0, 0.0, 0.0, 0.0, 0.0, 1.667052618517776E9, 0.0, 2022-10-29 16:10:18.517
80.0, 1514.1976044098847, 2479.8921315683983, -12927.265258788597, -4165.805372493807, 0.0, 0.03200000151991844, 1.008000047877431, 0.0, 0.0, 0.0, 0.0, 0.0, 1.6670526185185409E9, 0.0, 2022-10-29 16:10:18.518
80.0, 1520.271201937925, 2604.3298227940686, -13085.01236896962, -4279.7619940936565, 0.0, 0.03200000151991844, 1.008000047877431, 0.0, 0.0, 0.0, 0.0, 0.0, 1.6670526185185409E9, 0.0, 2022-10-29 16:10:18.518
81.0, 1638.0705707422458, 2791.1864442802034, -13133.210329648573, -4115.281194042414, 0.0, 0.03200000151991844, 1.008000047877431, 0.0, 0.0, 0.0, 0.0, 0.0, 1.6670526185192652E9, 0.0, 2022-10-29 16:10:18.519
81.0, 1816.8695777738467, 2760.7922773403116, -13138.917416980956, -3996.7880737963133, 0.0, 0.03200000151991844, 1.008000047877431, 0.0, 0.0, 0.0, 0.0, 0.0, 1.6670526185192652E9, 0.0, 2022-10-29 16:10:18.519
82.0, 2007.8830980607308, 2959.0799030410126, -12946.467775111087, -4186.041971154045, 0.0, 0.03200000151991844, 1.008000047877431, 0.0, 0.0, 0.0, 0.0, 0.0, 1.6670526185313637E9, 0.0, 2022-10-29 16:10:18.531
82.0, 2043.2812511413358, 3094.0154934423044, -13088.997232372407, -4284.283533140086, 0.0, 0.03200000151991844, 1.008000047877431, 0.0, 0.0, 0.0, 0.0, 0.0, 1.6670526185313637E9, 0.0, 2022-10-29 16:10:18.531
83.0, 2153.8214741316624, 3285.745204570703, -13124.838563597761, -4113.8936911588535, 0.0, 0.03200000151991844, 1.008000047877431, 0.0, 0.0, 0.0, 0.0, 0.0, 1.6670526185470867E9, 0.0, 2022-10-29 16:10:18.547
83.0, 2345.418418811634, 3267.561810986139, -13121.317447789479, -3981.114153082017, 0.0, 0.03200000151991844, 1.008000047877431, 0.0, 0.0, 0.0, 0.0, 0.0, 1.6670526185470867E9, 0.0, 2022-10-29 16:10:18.547
84.0, 2524.2585647427477, 3443.3838576530106, -12932.0168016823, -4175.155122383032, 0.0, 0.03200000151991844, 1.008000047877431, 0.0, 0.0, 0.0, 0.0, 0.0, 1.667052618547836E9, 0.0, 2022-10-29 16:10:18.547
84.0, 2544.1997113064863, 3586.1844576611184, -13078.978040391114, -4277.671390018426, 0.0, 0.03200000151991844, 1.008000047877431, 0.0, 0.0, 0.0, 0.0, 0.0, 1.667052618547836E9, 0.0, 2022-10-29 16:10:18.547
85.0, 2697.1990184937604, 3814.845680851955, -13081.796055007726, -4087.194545375183, 0.0, 0.03200000151991844, 1.008000047877431, 0.0, 0.0, 0.0, 0.0, 0.0, 1.6670526185613675E9, 0.0, 2022-10-29 16:10:18.561
85.0, 2858.547652332112, 3762.453422372695, -13111.98826735001, -3957.7584778587334, 0.0, 0.03200000151991844, 1.008000047877431, 0.0, 0.0, 0.0, 0.0, 0.0, 1.6670526185613675E9, 0.0, 2022-10-29 16:10:18.561
86.0, 3006.8141161254607, 3912.500078544952, -12966.0143622295, -4188.757138521876, 0.0, 0.03200000151991844, 1.008000047877431, 0.0, 0.0, 0.0, 0.0, 0.0, 1.6670526185771043E9, 0.0, 2022-10-29 16:10:18.577
